Sensor Model:   DT-670-CU-HT-1.4L
Serial Number:  D6135677
Data Format:    2      (Volts/Kelvin)
SetPoint Limit: 325      (Kelvin)
Temperature coefficient:  1 (Negative)
Number of Breakpoints:   110

No.   Units      Temperature (K)

  1  .90600e-01    500.000
  2  .110239       491.000
  3  .136555       479.500
  4  .179181       461.500
  5  .265393       425.500
  6  .349522       390.000
  7  .452797       346.000
  8  .499242       330.154
  9  .511082       325.000
 10  .553385       306.500
 11  .590853       290.000
 12  .624664       275.000
 13  .655959       261.000
 14  .685870       247.500
 15  .714413       234.500
 16  .741599       222.000
 17  .767441       210.000
 18  .791955       198.500
 19  .815158       187.500
 20  .837069       177.000
 21  .857704       167.000
 22  .877080       157.500
 23  .895209       148.500
 24  .913102       139.500
 25  .929766       131.000
 26  .945224       123.000
 27  .959496       115.500
 28  .972614       108.500
 29  .985527       101.500
 30  .995510        96.000
 31  1.00358        91.500
 32  1.01156        87.000
 33  1.01944        82.500
 34  1.02722        78.000
 35  1.03491        73.500
 36  1.04250        69.000
 37  1.05000        64.500
 38  1.05839        59.400
 39  1.06716        54.000
 40  1.07651        48.200
 41  1.08094        45.400
 42  1.08563        42.400
 43  1.09075        39.200
 44  1.09627        35.800
 45  1.09911        34.100
 46  1.10205        32.400
 47  1.10456        31.000
 48  1.10662        29.900
 49  1.10880        28.800
 50  1.11048        28.000
 51  1.11208        27.300
 52  1.11359        26.700
 53  1.11498        26.200
 54  1.11654        25.700
 55  1.11800        25.300
 56  1.11925        25.000
 57  1.12070        24.700
 58  1.12243        24.400
 59  1.12458        24.100
 60  1.12638        23.900
 61  1.12851        23.700
 62  1.13105        23.500
 63  1.13404        23.300
 64  1.13937        23.000
 65  1.15204        22.400
 66  1.16299        21.900
 67  1.17262        21.400
 68  1.18290        20.800
 69  1.19400        20.100
 70  1.20763        19.200
 71  1.22999        17.700
 72  1.24291        16.850
 73  1.25464        16.100
 74  1.26516        15.450
 75  1.27524        14.850
 76  1.28486        14.300
 77  1.29487        13.750
 78  1.30533        13.200
 79  1.31628        12.650
 80  1.32672        12.150
 81  1.33763        11.650
 82  1.34907        11.150
 83  1.36107        10.650
 84  1.37369        10.150
 85  1.38563         9.700
 86  1.39814         9.250
 87  1.41132         8.800
 88  1.42517         8.350
 89  1.44131         7.850
 90  1.45997         7.300
 91  1.48297         6.650
 92  1.52996         5.360
 93  1.55117         4.760
 94  1.56532         4.340
 95  1.57546         4.020
 96  1.58293         3.770
 97  1.58915         3.550
 98  1.59534         3.320
 99  1.60176         3.070
100  1.60813         2.810
101  1.61375         2.570
102  1.61842         2.360
103  1.62221         2.180
104  1.62537         2.020
105  1.62812         1.870
106  1.63049         1.730
107  1.63250         1.600
108  1.63420         1.480
109  1.63523         1.400
110  1.63747         1.199
