Sensor Model:   DT-670-CU-HT-1.4L
Serial Number:  D6150099
Data Format:    2      (Volts/Kelvin)
SetPoint Limit: 325      (Kelvin)
Temperature coefficient:  1 (Negative)
Number of Breakpoints:   106

No.   Units      Temperature (K)

  1  .90600e-01    500.000
  2  .110239       491.000
  3  .136555       479.500
  4  .179181       461.500
  5  .265393       425.500
  6  .349522       390.000
  7  .452797       346.000
  8  .494463       330.156
  9  .506391       325.000
 10  .546695       307.500
 11  .586728       290.000
 12  .619655       275.500
 13  .651189       261.500
 14  .681340       248.000
 15  .710126       235.000
 16  .737549       222.500
 17  .763621       210.500
 18  .788366       199.000
 19  .811791       188.000
 20  .833914       177.500
 21  .854753       167.500
 22  .874323       158.000
 23  .892638       149.000
 24  .910719       140.000
 25  .927559       131.500
 26  .943179       123.500
 27  .957598       116.000
 28  .970850       109.000
 29  .983894       102.000
 30  .993973        96.500
 31  1.00212        92.000
 32  1.01017        87.500
 33  1.01811        83.000
 34  1.02595        78.500
 35  1.03369        74.000
 36  1.04132        69.500
 37  1.04886        65.000
 38  1.05630        60.500
 39  1.06398        55.800
 40  1.07270        50.400
 41  1.08132        45.000
 42  1.09036        39.300
 43  1.09439        36.800
 44  1.09754        34.900
 45  1.10046        33.200
 46  1.10312        31.700
 47  1.10553        30.400
 48  1.10767        29.300
 49  1.10952        28.400
 50  1.11130        27.600
 51  1.11274        27.000
 52  1.11406        26.500
 53  1.11552        26.000
 54  1.11684        25.600
 55  1.11833        25.200
 56  1.11964        24.900
 57  1.12116        24.600
 58  1.12300        24.300
 59  1.12531        24.000
 60  1.12832        23.700
 61  1.13222        23.400
 62  1.13719        23.100
 63  1.14527        22.700
 64  1.16317        21.900
 65  1.17119        21.500
 66  1.18023        21.000
 67  1.19184        20.300
 68  1.20513        19.450
 69  1.23041        17.800
 70  1.24449        16.900
 71  1.25657        16.150
 72  1.26742        15.500
 73  1.27865        14.850
 74  1.28944        14.250
 75  1.29974        13.700
 76  1.31047        13.150
 77  1.32168        12.600
 78  1.33340        12.050
 79  1.34569        11.500
 80  1.35738        11.000
 81  1.36960        10.500
 82  1.38240        10.000
 83  1.39584         9.500
 84  1.40858         9.050
 85  1.42193         8.600
 86  1.43751         8.100
 87  1.45552         7.550
 88  1.47608         6.950
 89  1.53335         5.340
 90  1.55265         4.780
 91  1.56579         4.380
 92  1.57627         4.040
 93  1.58374         3.780
 94  1.59002         3.550
 95  1.59678         3.290
 96  1.60451         2.980
 97  1.61220         2.660
 98  1.61772         2.420
 99  1.62209         2.220
100  1.62558         2.050
101  1.62845         1.900
102  1.63093         1.760
103  1.63306         1.630
104  1.63486         1.510
105  1.63634         1.400
106  1.63867         1.200
