Sensor Model:   RX-102A-CD-0.05B
Serial Number:  U06138
Data Format:    4      (Log Ohms/Kelvin)
SetPoint Limit: 40      (Kelvin)
Temperature coefficient:  1 (Negative)
Number of Breakpoints:   140

No.   Units      Temperature (K)

  1  3.02223        44.929
  2  3.02417        40.000
  3  3.02471        38.800
  4  3.02523        37.700
  5  3.02578        36.600
  6  3.02636        35.500
  7  3.02698        34.400
  8  3.02763        33.300
  9  3.02831        32.200
 10  3.02891        31.300
 11  3.02948        30.500
 12  3.03031        29.400
 13  3.03126        28.200
 14  3.03194        27.400
 15  3.03277        26.500
 16  3.03394        25.300
 17  3.03476        24.500
 18  3.03565        23.700
 19  3.03674        22.800
 20  3.03788        21.900
 21  3.03885        21.200
 22  3.04004        20.400
 23  3.04115        19.700
 24  3.04190        19.250
 25  3.04268        18.800
 26  3.04359        18.300
 27  3.04455        17.800
 28  3.04545        17.350
 29  3.04641        16.900
 30  3.04754        16.400
 31  3.04872        15.900
 32  3.04983        15.450
 33  3.05088        15.050
 34  3.05199        14.650
 35  3.05316        14.250
 36  3.05455        13.800
 37  3.05603        13.350
 38  3.05740        12.950
 39  3.05887        12.550
 40  3.06043        12.150
 41  3.06209        11.750
 42  3.06386        11.350
 43  3.06575        10.950
 44  3.06775        10.550
 45  3.06989        10.150
 46  3.07189         9.800
 47  3.07403         9.450
 48  3.07632         9.100
 49  3.07879         8.750
 50  3.08143         8.400
 51  3.08427         8.050
 52  3.08734         7.700
 53  3.09017         7.400
 54  3.09321         7.100
 55  3.09648         6.800
 56  3.10001         6.500
 57  3.10384         6.200
 58  3.10799         5.900
 59  3.11221         5.620
 60  3.11681         5.340
 61  3.12184         5.060
 62  3.12697         4.800
 63  3.13257         4.540
 64  3.13824         4.300
 65  3.14447         4.060
 66  3.14987         3.870
 67  3.15472         3.710
 68  3.15962         3.560
 69  3.16524         3.400
 70  3.17128         3.240
 71  3.17741         3.090
 72  3.18403         2.940
 73  3.19073         2.800
 74  3.19797         2.660
 75  3.20586         2.520
 76  3.21446         2.380
 77  3.22320         2.250
 78  3.23277         2.120
 79  3.24330         1.990
 80  3.25399         1.870
 81  3.26579         1.750
 82  3.27894         1.630
 83  3.29239         1.520
 84  3.30735         1.410
 85  3.32415         1.300
 86  3.33963         1.210
 87  3.34253         1.195
 88  3.34913         1.160
 89  3.35808         1.115
 90  3.36648         1.075
 91  3.37537         1.035
 92  3.38483         0.995
 93  3.39488         0.955
 94  3.40555         0.915
 95  3.41691         0.875
 96  3.42753         0.840
 97  3.43879         0.805
 98  3.45078         0.770
 99  3.46355         0.735
100  3.47722         0.700
101  3.49194         0.665
102  3.50781         0.630
103  3.52491         0.595
104  3.54071         0.565
105  3.55772         0.535
106  3.57621         0.505
107  3.59153         0.482
108  3.60563         0.462
109  3.62060         0.442
110  3.63657         0.422
111  3.65193         0.404
112  3.66827         0.386
113  3.68571         0.368
114  3.70434         0.350
115  3.72215         0.334
116  3.74127         0.318
117  3.76182         0.302
118  3.78253         0.287
119  3.80505         0.272
120  3.83104         0.256
121  3.85917         0.240
122  3.88774         0.225
123  3.91665         0.211
124  3.94606         0.198
125  3.97829         0.185
126  4.01374         0.172
127  4.04979         0.160
128  4.08948         0.148
129  4.13001         0.137
130  4.17510         0.126
131  4.22118         0.116
132  4.27291         0.106
133  4.32607         0.097
134  4.38676         0.088
135  4.44921         0.080
136  4.52084         0.072
137  4.60477         0.064
138  4.70475         0.056
139  4.79700         0.050
140  4.92134         0.044
