Sensor Model:   RX-102A-AA-0.05B
Serial Number:  U09889
Data Format:    4      (Log Ohms/Kelvin)
SetPoint Limit: 40      (Kelvin)
Temperature coefficient:  1 (Negative)
Number of Breakpoints:   141

No.   Units      Temperature (K)

  1  3.02110        45.137
  2  3.02315        40.000
  3  3.02369        38.800
  4  3.02420        37.700
  5  3.02475        36.600
  6  3.02532        35.500
  7  3.02587        34.500
  8  3.02640        33.600
  9  3.02697        32.700
 10  3.02763        31.700
 11  3.02841        30.600
 12  3.02915        29.600
 13  3.02986        28.700
 14  3.03062        27.800
 15  3.03151        26.800
 16  3.03245        25.800
 17  3.03337        24.900
 18  3.03424        24.100
 19  3.03517        23.300
 20  3.03629        22.400
 21  3.03750        21.500
 22  3.03880        20.600
 23  3.03980        19.950
 24  3.04062        19.450
 25  3.04146        18.950
 26  3.04227        18.500
 27  3.04302        18.100
 28  3.04392        17.650
 29  3.04506        17.100
 30  3.04604        16.650
 31  3.04695        16.250
 32  3.04804        15.800
 33  3.04931        15.300
 34  3.05052        14.850
 35  3.05165        14.450
 36  3.05286        14.050
 37  3.05430        13.600
 38  3.05582        13.150
 39  3.05725        12.750
 40  3.05876        12.350
 41  3.06036        11.950
 42  3.06207        11.550
 43  3.06388        11.150
 44  3.06583        10.750
 45  3.06791        10.350
 46  3.06986        10.000
 47  3.07193         9.650
 48  3.07413         9.300
 49  3.07648         8.950
 50  3.07901         8.600
 51  3.08173         8.250
 52  3.08466         7.900
 53  3.08784         7.550
 54  3.09078         7.250
 55  3.09394         6.950
 56  3.09733         6.650
 57  3.10100         6.350
 58  3.10497         6.050
 59  3.10914         5.760
 60  3.11354         5.480
 61  3.11798         5.220
 62  3.12284         4.960
 63  3.12814         4.700
 64  3.13392         4.440
 65  3.13981         4.200
 66  3.14547         3.990
 67  3.15039         3.820
 68  3.15534         3.660
 69  3.16069         3.500
 70  3.16681         3.330
 71  3.17264         3.180
 72  3.17898         3.030
 73  3.18578         2.880
 74  3.19266         2.740
 75  3.20016         2.600
 76  3.20832         2.460
 77  3.21723         2.320
 78  3.22631         2.190
 79  3.23626         2.060
 80  3.24725         1.930
 81  3.25847         1.810
 82  3.27086         1.690
 83  3.28353         1.580
 84  3.29759         1.470
 85  3.31331         1.360
 86  3.32933         1.260
 87  3.34006         1.200
 88  3.34763         1.160
 89  3.35561         1.120
 90  3.36401         1.080
 91  3.37286         1.040
 92  3.38221         1.000
 93  3.39215         0.960
 94  3.40274         0.920
 95  3.41404         0.880
 96  3.42608         0.840
 97  3.43730         0.805
 98  3.44920         0.770
 99  3.46190         0.735
100  3.47552         0.700
101  3.49022         0.665
102  3.50610         0.630
103  3.52326         0.595
104  3.53915         0.565
105  3.55620         0.535
106  3.57466         0.505
107  3.58992         0.482
108  3.60400         0.462
109  3.61895         0.442
110  3.63331         0.424
111  3.64855         0.406
112  3.66482         0.388
113  3.68219         0.370
114  3.70077         0.352
115  3.71848         0.336
116  3.73743         0.320
117  3.75775         0.304
118  3.77686         0.290
119  3.79911         0.275
120  3.82645         0.258
121  3.85417         0.242
122  3.88051         0.228
123  3.90919         0.214
124  3.94061         0.200
125  3.97260         0.187
126  4.00774         0.174
127  4.04658         0.161
128  4.08623         0.149
129  4.12666         0.138
130  4.17180         0.127
131  4.21790         0.117
132  4.26964         0.107
133  4.32266         0.098
134  4.38298         0.089
135  4.44513         0.081
136  4.51669         0.073
137  4.60013         0.065
138  4.68626         0.058
139  4.77223         0.052
140  4.80692         0.050
141  4.93268         0.044
