Sensor Model:   RX-102A-CD-0.05B
Serial Number:  U10087
Data Format:    4      (Log Ohms/Kelvin)
SetPoint Limit: 40      (Kelvin)
Temperature coefficient:  1 (Negative)
Number of Breakpoints:   142

No.   Units      Temperature (K)

  1  3.01861        44.929
  2  3.02037        40.000
  3  3.02084        38.900
  4  3.02129        37.900
  5  3.02186        36.700
  6  3.02256        35.300
  7  3.02314        34.200
  8  3.02369        33.200
  9  3.02423        32.300
 10  3.02479        31.400
 11  3.02539        30.500
 12  3.02610        29.500
 13  3.02686        28.500
 14  3.02757        27.600
 15  3.02834        26.700
 16  3.02917        25.800
 17  3.03004        24.900
 18  3.03096        24.000
 19  3.03184        23.200
 20  3.03279        22.400
 21  3.03381        21.600
 22  3.03491        20.800
 23  3.03593        20.100
 24  3.03670        19.600
 25  3.03742        19.150
 26  3.03818        18.700
 27  3.03907        18.200
 28  3.03991        17.750
 29  3.04068        17.350
 30  3.04151        16.950
 31  3.04259        16.450
 32  3.04372        15.950
 33  3.04467        15.550
 34  3.04567        15.150
 35  3.04687        14.700
 36  3.04827        14.200
 37  3.04960        13.750
 38  3.05085        13.350
 39  3.05219        12.950
 40  3.05360        12.550
 41  3.05511        12.150
 42  3.05672        11.750
 43  3.05842        11.350
 44  3.06022        10.950
 45  3.06190        10.600
 46  3.06370        10.250
 47  3.06563         9.900
 48  3.06768         9.550
 49  3.06985         9.200
 50  3.07216         8.850
 51  3.07463         8.500
 52  3.07729         8.150
 53  3.08018         7.800
 54  3.08285         7.500
 55  3.08572         7.200
 56  3.08879         6.900
 57  3.09210         6.600
 58  3.09568         6.300
 59  3.09982         5.980
 60  3.10378         5.700
 61  3.10810         5.420
 62  3.11283         5.140
 63  3.11802         4.860
 64  3.12329         4.600
 65  3.12860         4.360
 66  3.13444         4.120
 67  3.13977         3.920
 68  3.14463         3.750
 69  3.14955         3.590
 70  3.15485         3.430
 71  3.16055         3.270
 72  3.16633         3.120
 73  3.17256         2.970
 74  3.17933         2.820
 75  3.18621         2.680
 76  3.19366         2.540
 77  3.20118         2.410
 78  3.20937         2.280
 79  3.21832         2.150
 80  3.22809         2.020
 81  3.23804         1.900
 82  3.24900         1.780
 83  3.26120         1.660
 84  3.27369         1.550
 85  3.28752         1.440
 86  3.30145         1.340
 87  3.31715         1.240
 88  3.32232         1.210
 89  3.32564         1.190
 90  3.32923         1.170
 91  3.34941         1.070
 92  3.35881         1.025
 93  3.36761         0.985
 94  3.37584         0.950
 95  3.38464         0.915
 96  3.39404         0.880
 97  3.40546         0.840
 98  3.41768         0.800
 99  3.42912         0.765
100  3.44131         0.730
101  3.45438         0.695
102  3.46837         0.660
103  3.48342         0.625
104  3.49967         0.590
105  3.51474         0.560
106  3.53097         0.530
107  3.54560         0.505
108  3.55863         0.484
109  3.57177         0.464
110  3.58567         0.444
111  3.59901         0.426
112  3.61315         0.408
113  3.62824         0.390
114  3.64432         0.372
115  3.66148         0.354
116  3.67780         0.338
117  3.69522         0.322
118  3.71393         0.306
119  3.73279         0.291
120  3.75330         0.276
121  3.77699         0.260
122  3.80246         0.244
123  3.82828         0.229
124  3.85444         0.215
125  3.88289         0.201
126  3.91183         0.188
127  3.94108         0.176
128  3.97312         0.164
129  4.00832         0.152
130  4.04726         0.140
131  4.08715         0.129
132  4.12767         0.119
133  4.17299         0.109
134  4.21900         0.100
135  4.27097         0.091
136  4.32396         0.083
137  4.38458         0.075
138  4.45506         0.067
139  4.53780         0.059
140  4.62384         0.052
141  4.65377         0.050
142  4.76226         0.044
