Sensor Model:   RX-102A-CD-0.05B
Serial Number:  U10193
Data Format:    4      (Log Ohms/Kelvin)
SetPoint Limit: 40      (Kelvin)
Temperature coefficient:  1 (Negative)
Number of Breakpoints:   142

No.   Units      Temperature (K)

  1  3.01714        44.929
  2  3.01892        40.000
  3  3.01938        38.900
  4  3.01982        37.900
  5  3.02034        36.800
  6  3.02097        35.500
  7  3.02153        34.400
  8  3.02202        33.500
  9  3.02255        32.600
 10  3.02317        31.600
 11  3.02389        30.500
 12  3.02459        29.500
 13  3.02526        28.600
 14  3.02596        27.700
 15  3.02671        26.800
 16  3.02743        26.000
 17  3.02818        25.200
 18  3.02910        24.300
 19  3.03006        23.400
 20  3.03098        22.600
 21  3.03198        21.800
 22  3.03305        21.000
 23  3.03435        20.100
 24  3.03474        19.850
 25  3.03536        19.450
 26  3.03616        18.950
 27  3.03693        18.500
 28  3.03765        18.100
 29  3.03850        17.650
 30  3.03959        17.100
 31  3.04063        16.600
 32  3.04161        16.150
 33  3.04266        15.700
 34  3.04376        15.250
 35  3.04493        14.800
 36  3.04616        14.350
 37  3.04747        13.900
 38  3.04870        13.500
 39  3.05000        13.100
 40  3.05138        12.700
 41  3.05284        12.300
 42  3.05439        11.900
 43  3.05604        11.500
 44  3.05779        11.100
 45  3.05966        10.700
 46  3.06141        10.350
 47  3.06327        10.000
 48  3.06525         9.650
 49  3.06737         9.300
 50  3.06962         8.950
 51  3.07203         8.600
 52  3.07463         8.250
 53  3.07743         7.900
 54  3.08002         7.600
 55  3.08279         7.300
 56  3.08577         7.000
 57  3.08898         6.700
 58  3.09244         6.400
 59  3.09619         6.100
 60  3.09998         5.820
 61  3.10409         5.540
 62  3.10857         5.260
 63  3.11313         5.000
 64  3.11810         4.740
 65  3.12352         4.480
 66  3.12903         4.240
 67  3.13458         4.020
 68  3.13946         3.840
 69  3.14384         3.690
 70  3.14916         3.520
 71  3.15420         3.370
 72  3.15964         3.220
 73  3.16548         3.070
 74  3.17180         2.920
 75  3.17866         2.770
 76  3.18563         2.630
 77  3.19318         2.490
 78  3.20144         2.350
 79  3.20984         2.220
 80  3.21901         2.090
 81  3.22908         1.960
 82  3.23935         1.840
 83  3.25070         1.720
 84  3.26336         1.600
 85  3.27629         1.490
 86  3.29067         1.380
 87  3.30682         1.270
 88  3.31672         1.210
 89  3.32365         1.170
 90  3.33186         1.125
 91  3.33955         1.085
 92  3.34769         1.045
 93  3.35638         1.005
 94  3.36559         0.965
 95  3.37529         0.925
 96  3.38556         0.885
 97  3.39518         0.850
 98  3.40542         0.815
 99  3.41633         0.780
100  3.42788         0.745
101  3.44018         0.710
102  3.45338         0.675
103  3.46763         0.640
104  3.48297         0.605
105  3.49710         0.575
106  3.51225         0.545
107  3.52866         0.515
108  3.54223         0.492
109  3.55471         0.472
110  3.56793         0.452
111  3.58197         0.432
112  3.59695         0.412
113  3.61133         0.394
114  3.62662         0.376
115  3.64294         0.358
116  3.65845         0.342
117  3.67504         0.326
118  3.69511         0.308
119  3.71432         0.292
120  3.73395         0.277
121  3.75808         0.260
122  3.78247         0.244
123  3.80554         0.230
124  3.83067         0.216
125  3.85804         0.202
126  3.88562         0.189
127  3.91569         0.176
128  3.94627         0.164
129  3.97992         0.152
130  4.01725         0.140
131  4.05538         0.129
132  4.09401         0.119
133  4.13711         0.109
134  4.18083         0.100
135  4.23031         0.091
136  4.28728         0.082
137  4.34596         0.074
138  4.41387         0.066
139  4.49308         0.058
140  4.56380         0.052
141  4.59139         0.050
142  4.69227         0.044
