Sensor Model:   RX-102A-CD-0.05B
Serial Number:  U09675
Data Format:    4      (Log Ohms/Kelvin)
SetPoint Limit: 40      (Kelvin)
Temperature coefficient:  1 (Negative)
Number of Breakpoints:   142

No.   Units      Temperature (K)

  1  3.02134        44.921
  2  3.02326        40.000
  3  3.02370        39.000
  4  3.02413        38.100
  5  3.02468        37.000
  6  3.02537        35.700
  7  3.02603        34.500
  8  3.02668        33.400
  9  3.02730        32.400
 10  3.02790        31.500
 11  3.02853        30.600
 12  3.02937        29.500
 13  3.03032        28.300
 14  3.03100        27.500
 15  3.03173        26.700
 16  3.03272        25.700
 17  3.03387        24.600
 18  3.03497        23.600
 19  3.03591        22.800
 20  3.03681        22.100
 21  3.03791        21.300
 22  3.03909        20.500
 23  3.04012        19.850
 24  3.04095        19.350
 25  3.04173        18.900
 26  3.04264        18.400
 27  3.04360        17.900
 28  3.04440        17.500
 29  3.04525        17.100
 30  3.04638        16.600
 31  3.04791        15.950
 32  3.04902        15.500
 33  3.05006        15.100
 34  3.05117        14.700
 35  3.05234        14.300
 36  3.05357        13.900
 37  3.05488        13.500
 38  3.05625        13.100
 39  3.05771        12.700
 40  3.05924        12.300
 41  3.06086        11.900
 42  3.06258        11.500
 43  3.06442        11.100
 44  3.06639        10.700
 45  3.06850        10.300
 46  3.07048         9.950
 47  3.07258         9.600
 48  3.07482         9.250
 49  3.07723         8.900
 50  3.07982         8.550
 51  3.08259         8.200
 52  3.08557         7.850
 53  3.08832         7.550
 54  3.09127         7.250
 55  3.09445         6.950
 56  3.09787         6.650
 57  3.10157         6.350
 58  3.10558         6.050
 59  3.10978         5.760
 60  3.11421         5.480
 61  3.11869         5.220
 62  3.12359         4.960
 63  3.12895         4.700
 64  3.13481         4.440
 65  3.14125         4.180
 66  3.14699         3.970
 67  3.15201         3.800
 68  3.15740         3.630
 69  3.16286         3.470
 70  3.16837         3.320
 71  3.17470         3.160
 72  3.18113         3.010
 73  3.18765         2.870
 74  3.19469         2.730
 75  3.20232         2.590
 76  3.21061         2.450
 77  3.21968         2.310
 78  3.22892         2.180
 79  3.23901         2.050
 80  3.24928         1.930
 81  3.26057         1.810
 82  3.27315         1.690
 83  3.28718         1.570
 84  3.30155         1.460
 85  3.31761         1.350
 86  3.33372         1.250
 87  3.34107         1.210
 88  3.34718         1.180
 89  3.35459         1.145
 90  3.36847         1.075
 91  3.37485         1.045
 92  3.38184         1.015
 93  3.39061         0.980
 94  3.40389         0.930
 95  3.41509         0.890
 96  3.42544         0.855
 97  3.43647         0.820
 98  3.44825         0.785
 99  3.46082         0.750
100  3.47424         0.715
101  3.48856         0.680
102  3.50391         0.645
103  3.51816         0.615
104  3.53355         0.585
105  3.55016         0.555
106  3.56793         0.525
107  3.58055         0.505
108  3.59312         0.486
109  3.60723         0.466
110  3.62227         0.446
111  3.63825         0.426
112  3.65518         0.406
113  3.67142         0.388
114  3.68687         0.372
115  3.70340         0.356
116  3.72324         0.338
117  3.74655         0.318
118  3.76415         0.304
119  3.78452         0.289
120  3.80659         0.274
121  3.82890         0.260
122  3.85486         0.245
123  3.88494         0.229
124  3.91540         0.214
125  3.94641         0.200
126  3.97808         0.187
127  4.01034         0.175
128  4.04588         0.163
129  4.08517         0.151
130  4.12509         0.140
131  4.16941         0.129
132  4.21476         0.119
133  4.26547         0.109
134  4.31706         0.100
135  4.37570         0.091
136  4.44340         0.082
137  4.51317         0.074
138  4.58485         0.067
139  4.67023         0.060
140  4.75954         0.054
141  4.83126         0.050
142  4.93547         0.045
