Sensor Model:   DT-670-CU-HT-1.4L
Serial Number:  D6150900
Data Format:    2      (Volts/Kelvin)
SetPoint Limit: 325      (Kelvin)
Temperature coefficient:  1 (Negative)
Number of Breakpoints:   108

No.   Units      Temperature (K)

  1  .90600e-01    500.000
  2  .110239       491.000
  3  .136555       479.500
  4  .179181       461.500
  5  .265393       425.500
  6  .349522       390.000
  7  .452797       346.000
  8  .486791       330.155
  9  .498860       325.000
 10  .541938       306.500
 11  .580105       290.000
 12  .614548       275.000
 13  .647576       260.500
 14  .679201       246.500
 15  .709429       233.000
 16  .738273       220.000
 17  .764642       208.000
 18  .790751       196.000
 19  .815511       184.500
 20  .837870       174.000
 21  .858931       164.000
 22  .878703       154.500
 23  .897196       145.500
 24  .914439       137.000
 25  .930454       129.000
 26  .945252       121.500
 27  .959824       114.000
 28  .973201       107.000
 29  .985422       100.500
 30  .990050        98.000
 31  .996510        94.500
 32  1.00471        90.000
 33  1.01280        85.500
 34  1.02079        81.000
 35  1.02866        76.500
 36  1.03641        72.000
 37  1.04406        67.500
 38  1.05160        63.000
 39  1.05953        58.200
 40  1.06736        53.400
 41  1.07574        48.200
 42  1.08992        39.300
 43  1.09366        37.000
 44  1.09684        35.100
 45  1.09978        33.400
 46  1.10247        31.900
 47  1.10490        30.600
 48  1.10705        29.500
 49  1.10891        28.600
 50  1.11068        27.800
 51  1.11236        27.100
 52  1.11395        26.500
 53  1.11544        26.000
 54  1.11677        25.600
 55  1.11829        25.200
 56  1.11963        24.900
 57  1.12117        24.600
 58  1.12305        24.300
 59  1.12458        24.100
 60  1.12637        23.900
 61  1.12854        23.700
 62  1.13112        23.500
 63  1.13417        23.300
 64  1.13963        23.000
 65  1.15264        22.400
 66  1.16385        21.900
 67  1.17363        21.400
 68  1.18405        20.800
 69  1.19535        20.100
 70  1.21005        19.150
 71  1.22909        17.900
 72  1.24309        17.000
 73  1.25511        16.250
 74  1.26669        15.550
 75  1.27786        14.900
 76  1.28860        14.300
 77  1.29886        13.750
 78  1.30955        13.200
 79  1.32073        12.650
 80  1.33242        12.100
 81  1.34467        11.550
 82  1.35752        11.000
 83  1.36977        10.500
 84  1.38260        10.000
 85  1.39608         9.500
 86  1.40884         9.050
 87  1.42222         8.600
 88  1.43782         8.100
 89  1.45585         7.550
 90  1.47807         6.900
 91  1.52883         5.460
 92  1.55005         4.840
 93  1.56375         4.420
 94  1.57415         4.080
 95  1.58155         3.820
 96  1.58750         3.600
 97  1.59394         3.350
 98  1.60183         3.030
 99  1.61017         2.680
100  1.61612         2.420
101  1.62069         2.210
102  1.62417         2.040
103  1.62703         1.890
104  1.62950         1.750
105  1.63161         1.620
106  1.63339         1.500
107  1.63474         1.400
108  1.63706         1.200
