Sensor Model:   DT-670-CU-HT-1.4L
Serial Number:  D6150088
Data Format:    2      (Volts/Kelvin)
SetPoint Limit: 325      (Kelvin)
Temperature coefficient:  1 (Negative)
Number of Breakpoints:   109

No.   Units      Temperature (K)

  1  .90600e-01    500.000
  2  .110239       491.000
  3  .136555       479.500
  4  .179181       461.500
  5  .265393       425.500
  6  .349522       390.000
  7  .452797       346.000
  8  .497699       330.154
  9  .509559       325.000
 10  .553067       306.000
 11  .591751       289.000
 12  .624501       274.500
 13  .655861       260.500
 14  .685842       247.000
 15  .714454       234.000
 16  .741704       221.500
 17  .767605       209.500
 18  .792179       198.000
 19  .815443       187.000
 20  .837411       176.500
 21  .858100       166.500
 22  .877529       157.000
 23  .895711       148.000
 24  .912664       139.500
 25  .928412       131.500
 26  .943941       123.500
 27  .958278       116.000
 28  .971456       109.000
 29  .984428       102.000
 30  .994456        96.500
 31  1.00256        92.000
 32  1.01057        87.500
 33  1.01848        83.000
 34  1.02629        78.500
 35  1.03401        74.000
 36  1.04162        69.500
 37  1.04914        65.000
 38  1.05657        60.500
 39  1.06457        55.600
 40  1.07360        50.000
 41  1.08222        44.600
 42  1.09109        39.000
 43  1.09512        36.500
 44  1.09827        34.600
 45  1.10118        32.900
 46  1.10385        31.400
 47  1.10626        30.100
 48  1.10822        29.100
 49  1.11008        28.200
 50  1.11165        27.500
 51  1.11310        26.900
 52  1.11471        26.300
 53  1.11624        25.800
 54  1.11764        25.400
 55  1.11926        25.000
 56  1.12071        24.700
 57  1.12243        24.400
 58  1.12457        24.100
 59  1.12635        23.900
 60  1.12845        23.700
 61  1.13095        23.500
 62  1.13389        23.300
 63  1.13917        23.000
 64  1.14970        22.500
 65  1.16313        21.900
 66  1.17299        21.400
 67  1.18350        20.800
 68  1.19484        20.100
 69  1.20876        19.200
 70  1.23011        17.800
 71  1.24410        16.900
 72  1.25609        16.150
 73  1.26765        15.450
 74  1.27879        14.800
 75  1.28948        14.200
 76  1.29968        13.650
 77  1.31031        13.100
 78  1.32141        12.550
 79  1.33303        12.000
 80  1.34409        11.500
 81  1.35564        11.000
 82  1.36773        10.500
 83  1.38041        10.000
 84  1.39375         9.500
 85  1.40639         9.050
 86  1.41965         8.600
 87  1.43357         8.150
 88  1.44977         7.650
 89  1.46843         7.100
 90  1.49488         6.350
 91  1.52536         5.500
 92  1.54694         4.880
 93  1.56160         4.440
 94  1.57287         4.080
 95  1.58077         3.810
 96  1.58717         3.580
 97  1.59379         3.330
 98  1.60114         3.040
 99  1.60845         2.740
100  1.61429         2.490
101  1.61896         2.280
102  1.62272         2.100
103  1.62583         1.940
104  1.62834         1.800
105  1.63050         1.670
106  1.63233         1.550
107  1.63385         1.440
108  1.63436         1.400
109  1.63665         1.200
