Sensor Model:   RX-102A-CD-0.05B
Serial Number:  U08562
Data Format:    4      (Log Ohms/Kelvin)
SetPoint Limit: 40      (Kelvin)
Temperature coefficient:  1 (Negative)
Number of Breakpoints:   140

No.   Units      Temperature (K)

  1  3.01744        44.929
  2  3.01925        40.000
  3  3.01968        39.000
  4  3.02009        38.100
  5  3.02057        37.100
  6  3.02118        35.900
  7  3.02183        34.700
  8  3.02245        33.600
  9  3.02310        32.500
 10  3.02373        31.500
 11  3.02433        30.600
 12  3.02505        29.600
 13  3.02589        28.500
 14  3.02662        27.600
 15  3.02731        26.800
 16  3.02814        25.900
 17  3.02904        25.000
 18  3.02999        24.100
 19  3.03100        23.200
 20  3.03196        22.400
 21  3.03299        21.600
 22  3.03412        20.800
 23  3.03518        20.100
 24  3.03605        19.550
 25  3.03689        19.050
 26  3.03767        18.600
 27  3.03849        18.150
 28  3.03935        17.700
 29  3.04026        17.250
 30  3.04133        16.750
 31  3.04244        16.250
 32  3.04350        15.800
 33  3.04461        15.350
 34  3.04565        14.950
 35  3.04675        14.550
 36  3.04792        14.150
 37  3.04915        13.750
 38  3.05061        13.300
 39  3.05216        12.850
 40  3.05361        12.450
 41  3.05515        12.050
 42  3.05680        11.650
 43  3.05833        11.300
 44  3.05996        10.950
 45  3.06169        10.600
 46  3.06352        10.250
 47  3.06546         9.900
 48  3.06752         9.550
 49  3.06973         9.200
 50  3.07209         8.850
 51  3.07463         8.500
 52  3.07735         8.150
 53  3.08030         7.800
 54  3.08348         7.450
 55  3.08643         7.150
 56  3.08958         6.850
 57  3.09299         6.550
 58  3.09668         6.250
 59  3.10111         5.920
 60  3.10522         5.640
 61  3.10967         5.360
 62  3.11420         5.100
 63  3.11913         4.840
 64  3.12451         4.580
 65  3.13040         4.320
 66  3.13641         4.080
 67  3.14161         3.890
 68  3.14632         3.730
 69  3.15169         3.560
 70  3.15710         3.400
 71  3.16259         3.250
 72  3.16849         3.100
 73  3.17487         2.950
 74  3.18181         2.800
 75  3.18881         2.660
 76  3.19643         2.520
 77  3.20476         2.380
 78  3.21320         2.250
 79  3.22241         2.120
 80  3.23255         1.990
 81  3.24286         1.870
 82  3.25420         1.750
 83  3.26574         1.640
 84  3.27856         1.530
 85  3.29283         1.420
 86  3.30717         1.320
 87  3.32325         1.220
 88  3.33402         1.160
 89  3.34159         1.120
 90  3.34964         1.080
 91  3.35811         1.040
 92  3.36704         1.000
 93  3.37651         0.960
 94  3.38661         0.920
 95  3.39739         0.880
 96  3.40888         0.840
 97  3.41960         0.805
 98  3.43097         0.770
 99  3.44311         0.735
100  3.45608         0.700
101  3.46999         0.665
102  3.48494         0.630
103  3.50111         0.595
104  3.51611         0.565
105  3.53220         0.535
106  3.54960         0.505
107  3.56399         0.482
108  3.57726         0.462
109  3.59134         0.442
110  3.60637         0.422
111  3.62079         0.404
112  3.63611         0.386
113  3.65247         0.368
114  3.66998         0.350
115  3.68875         0.332
116  3.70666         0.316
117  3.72350         0.302
118  3.74291         0.287
119  3.76535         0.271
120  3.79100         0.254
121  3.81537         0.239
122  3.84005         0.225
123  3.86698         0.211
124  3.89631         0.197
125  3.92607         0.184
126  3.95620         0.172
127  3.98922         0.160
128  4.02564         0.148
129  4.06261         0.137
130  4.10362         0.126
131  4.14544         0.116
132  4.19225         0.106
133  4.24013         0.097
134  4.29461         0.088
135  4.35776         0.079
136  4.42311         0.071
137  4.48906         0.064
138  4.56541         0.057
139  4.65819         0.050
140  4.76630         0.044
