Sensor Model:   RX-102A-CD-0.05B
Serial Number:  U09028
Data Format:    4      (Log Ohms/Kelvin)
SetPoint Limit: 40      (Kelvin)
Temperature coefficient:  1 (Negative)
Number of Breakpoints:   141

No.   Units      Temperature (K)

  1  3.01832        44.929
  2  3.02010        40.000
  3  3.02057        38.900
  4  3.02102        37.900
  5  3.02160        36.700
  6  3.02234        35.200
  7  3.02286        34.200
  8  3.02331        33.400
  9  3.02373        32.700
 10  3.02445        31.600
 11  3.02571        29.700
 12  3.02613        29.100
 13  3.02668        28.400
 14  3.02779        27.100
 15  3.02869        26.100
 16  3.02945        25.300
 17  3.03048        24.300
 18  3.03146        23.400
 19  3.03239        22.600
 20  3.03341        21.800
 21  3.03463        20.900
 22  3.03581        20.100
 23  3.03675        19.500
 24  3.03767        18.950
 25  3.03853        18.450
 26  3.03936        18.000
 27  3.04023        17.550
 28  3.04114        17.100
 29  3.04221        16.600
 30  3.04334        16.100
 31  3.04440        15.650
 32  3.04540        15.250
 33  3.04645        14.850
 34  3.04770        14.400
 35  3.04903        13.950
 36  3.05043        13.500
 37  3.05175        13.100
 38  3.05314        12.700
 39  3.05463        12.300
 40  3.05620        11.900
 41  3.05788        11.500
 42  3.05964        11.100
 43  3.06129        10.750
 44  3.06304        10.400
 45  3.06492        10.050
 46  3.06691         9.700
 47  3.06905         9.350
 48  3.07133         9.000
 49  3.07377         8.650
 50  3.07639         8.300
 51  3.07922         7.950
 52  3.08227         7.600
 53  3.08558         7.250
 54  3.08865         6.950
 55  3.09194         6.650
 56  3.09549         6.350
 57  3.09934         6.050
 58  3.10339         5.760
 59  3.10767         5.480
 60  3.11233         5.200
 61  3.11743         4.920
 62  3.12262         4.660
 63  3.12786         4.420
 64  3.13361         4.180
 65  3.13941         3.960
 66  3.14422         3.790
 67  3.14908         3.630
 68  3.15430         3.470
 69  3.15994         3.310
 70  3.16602         3.150
 71  3.17218         3.000
 72  3.17889         2.850
 73  3.18617         2.700
 74  3.19356         2.560
 75  3.20161         2.420
 76  3.21043         2.280
 77  3.21940         2.150
 78  3.22923         2.020
 79  3.23924         1.900
 80  3.25026         1.780
 81  3.26248         1.660
 82  3.27492         1.550
 83  3.28743         1.450
 84  3.30282         1.340
 85  3.31829         1.240
 86  3.32639         1.195
 87  3.33011         1.175
 88  3.33347         1.155
 89  3.33595         1.140
 90  3.34044         1.115
 91  3.34628         1.085
 92  3.35367         1.050
 93  3.36275         1.010
 94  3.37362         0.965
 95  3.38631         0.915
 96  3.39706         0.875
 97  3.40705         0.840
 98  3.41770         0.805
 99  3.42901         0.770
100  3.44102         0.735
101  3.45384         0.700
102  3.46763         0.665
103  3.48253         0.630
104  3.49862         0.595
105  3.51351         0.565
106  3.52948         0.535
107  3.54674         0.505
108  3.56102         0.482
109  3.57419         0.462
110  3.58816         0.442
111  3.60306         0.422
112  3.61734         0.404
113  3.63251         0.386
114  3.64874         0.368
115  3.66613         0.350
116  3.68480         0.332
117  3.70260         0.316
118  3.72166         0.300
119  3.73975         0.286
120  3.76074         0.271
121  3.78640         0.254
122  3.81241         0.238
123  3.83885         0.223
124  3.86576         0.209
125  3.89312         0.196
126  3.92305         0.183
127  3.95589         0.170
128  3.99202         0.157
129  4.02902         0.145
130  4.06693         0.134
131  4.10910         0.123
132  4.15205         0.113
133  4.20031         0.103
134  4.24997         0.094
135  4.30661         0.085
136  4.36481         0.077
137  4.43162         0.069
138  4.50981         0.061
139  4.58914         0.054
140  4.64408         0.050
141  4.74816         0.044
