Sensor Model:   RX-102A-CD-0.05B
Serial Number:  U09034
Data Format:    4      (Log Ohms/Kelvin)
SetPoint Limit: 40      (Kelvin)
Temperature coefficient:  1 (Negative)
Number of Breakpoints:   141

No.   Units      Temperature (K)

  1  3.01720        44.929
  2  3.01903        40.000
  3  3.01967        38.500
  4  3.02016        37.400
  5  3.02058        36.500
  6  3.02099        35.700
  7  3.02147        34.800
  8  3.02210        33.700
  9  3.02289        32.400
 10  3.02353        31.400
 11  3.02413        30.500
 12  3.02478        29.600
 13  3.02547        28.700
 14  3.02628        27.700
 15  3.02715        26.700
 16  3.02788        25.900
 17  3.02867        25.100
 18  3.02961        24.200
 19  3.03062        23.300
 20  3.03158        22.500
 21  3.03261        21.700
 22  3.03372        20.900
 23  3.03491        20.100
 24  3.03586        19.500
 25  3.03669        19.000
 26  3.03748        18.550
 27  3.03821        18.150
 28  3.03908        17.700
 29  3.04020        17.150
 30  3.04127        16.650
 31  3.04227        16.200
 32  3.04335        15.750
 33  3.04448        15.300
 34  3.04567        14.850
 35  3.04692        14.400
 36  3.04811        14.000
 37  3.04935        13.600
 38  3.05067        13.200
 39  3.05207        12.800
 40  3.05372        12.350
 41  3.05528        11.950
 42  3.05673        11.600
 43  3.05827        11.250
 44  3.05992        10.900
 45  3.06166        10.550
 46  3.06351        10.200
 47  3.06547         9.850
 48  3.06755         9.500
 49  3.06977         9.150
 50  3.07216         8.800
 51  3.07471         8.450
 52  3.07746         8.100
 53  3.08043         7.750
 54  3.08318         7.450
 55  3.08612         7.150
 56  3.08928         6.850
 57  3.09268         6.550
 58  3.09636         6.250
 59  3.10050         5.940
 60  3.10456         5.660
 61  3.10899         5.380
 62  3.11383         5.100
 63  3.11875         4.840
 64  3.12413         4.580
 65  3.13004         4.320
 66  3.13656         4.060
 67  3.14181         3.870
 68  3.14653         3.710
 69  3.15160         3.550
 70  3.15705         3.390
 71  3.16254         3.240
 72  3.16846         3.090
 73  3.17488         2.940
 74  3.18182         2.790
 75  3.18886         2.650
 76  3.19652         2.510
 77  3.20489         2.370
 78  3.21337         2.240
 79  3.22263         2.110
 80  3.23283         1.980
 81  3.24321         1.860
 82  3.25465         1.740
 83  3.26736         1.620
 84  3.28033         1.510
 85  3.29344         1.410
 86  3.30803         1.310
 87  3.32427         1.210
 88  3.32708         1.195
 89  3.33245         1.165
 90  3.34103         1.120
 91  3.35003         1.075
 92  3.35852         1.035
 93  3.36748         0.995
 94  3.37701         0.955
 95  3.38717         0.915
 96  3.39801         0.875
 97  3.40957         0.835
 98  3.42034         0.800
 99  3.43179         0.765
100  3.44404         0.730
101  3.45714         0.695
102  3.47116         0.660
103  3.48624         0.625
104  3.50020         0.595
105  3.51513         0.565
106  3.53120         0.535
107  3.54848         0.505
108  3.56277         0.482
109  3.57599         0.462
110  3.59004         0.442
111  3.60502         0.422
112  3.62100         0.402
113  3.63638         0.384
114  3.65276         0.366
115  3.67031         0.348
116  3.68917         0.330
117  3.70723         0.314
118  3.72786         0.297
119  3.74641         0.283
120  3.76934         0.267
121  3.79550         0.250
122  3.82024         0.235
123  3.84523         0.221
124  3.87048         0.208
125  3.89803         0.195
126  3.92817         0.182
127  3.96111         0.169
128  3.99465         0.157
129  4.03172         0.145
130  4.06958         0.134
131  4.11162         0.123
132  4.15452         0.113
133  4.20281         0.103
134  4.25239         0.094
135  4.30231         0.086
136  4.35944         0.078
137  4.42522         0.070
138  4.49181         0.063
139  4.58081         0.055
140  4.64917         0.050
141  4.75624         0.044
