Sensor Model:   RX-102A-CD-0.05B
Serial Number:  U09892
Data Format:    4      (Log Ohms/Kelvin)
SetPoint Limit: 40      (Kelvin)
Temperature coefficient:  1 (Negative)
Number of Breakpoints:   140

No.   Units      Temperature (K)

  1  3.02121        44.929
  2  3.02314        40.000
  3  3.02368        38.800
  4  3.02420        37.700
  5  3.02475        36.600
  6  3.02529        35.600
  7  3.02585        34.600
  8  3.02651        33.500
  9  3.02720        32.400
 10  3.02786        31.400
 11  3.02850        30.500
 12  3.02926        29.500
 13  3.03014        28.400
 14  3.03099        27.400
 15  3.03181        26.500
 16  3.03259        25.700
 17  3.03353        24.800
 18  3.03466        23.800
 19  3.03574        22.900
 20  3.03678        22.100
 21  3.03803        21.200
 22  3.03922        20.400
 23  3.04010        19.850
 24  3.04110        19.250
 25  3.04205        18.700
 26  3.04278        18.300
 27  3.04346        17.950
 28  3.04439        17.500
 29  3.04568        16.900
 30  3.04669        16.450
 31  3.04765        16.050
 32  3.04878        15.600
 33  3.04996        15.150
 34  3.05121        14.700
 35  3.05239        14.300
 36  3.05378        13.850
 37  3.05542        13.350
 38  3.05680        12.950
 39  3.05808        12.600
 40  3.05946        12.250
 41  3.06114        11.850
 42  3.06314        11.400
 43  3.06503        11.000
 44  3.06678        10.650
 45  3.06863        10.300
 46  3.07061         9.950
 47  3.07272         9.600
 48  3.07498         9.250
 49  3.07739         8.900
 50  3.07997         8.550
 51  3.08275         8.200
 52  3.08573         7.850
 53  3.08850         7.550
 54  3.09146         7.250
 55  3.09464         6.950
 56  3.09808         6.650
 57  3.10178         6.350
 58  3.10578         6.050
 59  3.10970         5.780
 60  3.11411         5.500
 61  3.11894         5.220
 62  3.12421         4.940
 63  3.12958         4.680
 64  3.13547         4.420
 65  3.14196         4.160
 66  3.14775         3.950
 67  3.15278         3.780
 68  3.15788         3.620
 69  3.16335         3.460
 70  3.16924         3.300
 71  3.17520         3.150
 72  3.18165         3.000
 73  3.18864         2.850
 74  3.19623         2.700
 75  3.20396         2.560
 76  3.21238         2.420
 77  3.22161         2.280
 78  3.23100         2.150
 79  3.24128         2.020
 80  3.25176         1.900
 81  3.26331         1.780
 82  3.27614         1.660
 83  3.28921         1.550
 84  3.30371         1.440
 85  3.32004         1.330
 86  3.33674         1.230
 87  3.34793         1.170
 88  3.35682         1.125
 89  3.36623         1.080
 90  3.37509         1.040
 91  3.38444         1.000
 92  3.39439         0.960
 93  3.40502         0.920
 94  3.41638         0.880
 95  3.42850         0.840
 96  3.44144         0.800
 97  3.45355         0.765
 98  3.46639         0.730
 99  3.48018         0.695
100  3.49504         0.660
101  3.51109         0.625
102  3.52842         0.590
103  3.54447         0.560
104  3.56173         0.530
105  3.57725         0.505
106  3.59111         0.484
107  3.60511         0.464
108  3.61996         0.444
109  3.63581         0.424
110  3.65104         0.406
111  3.66722         0.388
112  3.68450         0.370
113  3.70297         0.352
114  3.72061         0.336
115  3.73951         0.320
116  3.75986         0.304
117  3.78044         0.289
118  3.80275         0.274
119  3.82838         0.258
120  3.85421         0.243
121  3.88028         0.229
122  3.90865         0.215
123  3.93965         0.201
124  3.97111         0.188
125  4.00553         0.175
126  4.04060         0.163
127  4.07932         0.151
128  4.12243         0.139
129  4.16662         0.128
130  4.21151         0.118
131  4.26194         0.108
132  4.31356         0.099
133  4.37216         0.090
134  4.43214         0.082
135  4.50085         0.074
136  4.58073         0.066
137  4.67558         0.058
138  4.75910         0.052
139  4.79255         0.050
140  4.91390         0.044
