Sensor Model:   DT-670-CU-HT-1.4L
Serial Number:  D6135685
Data Format:    2      (Volts/Kelvin)
SetPoint Limit: 325      (Kelvin)
Temperature coefficient:  1 (Negative)
Number of Breakpoints:   106

No.   Units      Temperature (K)

  1  .90600e-01    500.000
  2  .110239       491.000
  3  .136555       479.500
  4  .179181       461.500
  5  .265393       425.500
  6  .349522       390.000
  7  .452797       346.000
  8  .496787       330.153
  9  .508660       325.000
 10  .547675       308.000
 11  .588707       290.000
 12  .622629       275.000
 13  .654033       261.000
 14  .684059       247.500
 15  .712717       234.500
 16  .740019       222.000
 17  .765971       210.000
 18  .790595       198.500
 19  .813906       187.500
 20  .835919       177.000
 21  .856650       167.000
 22  .876120       157.500
 23  .894338       148.500
 24  .911326       140.000
 25  .928088       131.500
 26  .943633       123.500
 27  .957991       116.000
 28  .972127       108.500
 29  .985101       101.500
 30  .995133        96.000
 31  1.00324        91.500
 32  1.01125        87.000
 33  1.01916        82.500
 34  1.02698        78.000
 35  1.03469        73.500
 36  1.04230        69.000
 37  1.04982        64.500
 38  1.05856        59.200
 39  1.06701        54.000
 40  1.07603        48.400
 41  1.09177        38.500
 42  1.09549        36.200
 43  1.09817        34.600
 44  1.10338        31.600
 45  1.10517        30.600
 46  1.10672        29.800
 47  1.10981        28.300
 48  1.11136        27.600
 49  1.11281        27.000
 50  1.11439        26.400
 51  1.11588        25.900
 52  1.11724        25.500
 53  1.11880        25.100
 54  1.12018        24.800
 55  1.12179        24.500
 56  1.12377        24.200
 57  1.12539        24.000
 58  1.12730        23.800
 59  1.12958        23.600
 60  1.13229        23.400
 61  1.13545        23.200
 62  1.14102        22.900
 63  1.15397        22.300
 64  1.16291        21.900
 65  1.17090        21.500
 66  1.17989        21.000
 67  1.19146        20.300
 68  1.20471        19.450
 69  1.22913        17.850
 70  1.24396        16.900
 71  1.25601        16.150
 72  1.26680        15.500
 73  1.27713        14.900
 74  1.28784        14.300
 75  1.29807        13.750
 76  1.30872        13.200
 77  1.31985        12.650
 78  1.33149        12.100
 79  1.34367        11.550
 80  1.35643        11.000
 81  1.36859        10.500
 82  1.38130        10.000
 83  1.39465         9.500
 84  1.40869         9.000
 85  1.42350         8.500
 86  1.43907         8.000
 87  1.45704         7.450
 88  1.47752         6.850
 89  1.52939         5.380
 90  1.54919         4.800
 91  1.56220         4.400
 92  1.57260         4.060
 93  1.58004         3.800
 94  1.58629         3.570
 95  1.59301         3.310
 96  1.60070         3.000
 97  1.60809         2.690
 98  1.61382         2.440
 99  1.61840         2.230
100  1.62188         2.060
101  1.62475         1.910
102  1.62723         1.770
103  1.62935         1.640
104  1.63116         1.520
105  1.63278         1.400
106  1.63511         1.200
