Sensor Model:   DT-670-CU-HT-1.4L
Serial Number:  D6135686
Data Format:    2      (Volts/Kelvin)
SetPoint Limit: 325      (Kelvin)
Temperature coefficient:  1 (Negative)
Number of Breakpoints:   109

No.   Units      Temperature (K)

  1  .90600e-01    500.000
  2  .110239       491.000
  3  .136555       479.500
  4  .179181       461.500
  5  .265393       425.500
  6  .349522       390.000
  7  .452797       346.000
  8  .497579       330.154
  9  .509458       325.000
 10  .554138       305.500
 11  .590562       289.500
 12  .623323       275.000
 13  .654700       261.000
 14  .684697       247.500
 15  .713328       234.500
 16  .740596       222.000
 17  .766514       210.000
 18  .791107       198.500
 19  .814383       187.500
 20  .836367       177.000
 21  .857073       167.000
 22  .876513       157.500
 23  .894704       148.500
 24  .911668       140.000
 25  .927426       132.000
 26  .942964       124.000
 27  .957307       116.500
 28  .970491       109.500
 29  .983471       102.500
 30  .993504        97.000
 31  1.00162        92.500
 32  1.00963        88.000
 33  1.01755        83.500
 34  1.02537        79.000
 35  1.03308        74.500
 36  1.04070        70.000
 37  1.04823        65.500
 38  1.05567        61.000
 39  1.06317        56.400
 40  1.07512        49.000
 41  1.07990        46.000
 42  1.08552        42.400
 43  1.09048        39.300
 44  1.09583        36.000
 45  1.09851        34.400
 46  1.10355        31.500
 47  1.10536        30.500
 48  1.10692        29.700
 49  1.10980        28.300
 50  1.11135        27.600
 51  1.11306        26.900
 52  1.11440        26.400
 53  1.11589        25.900
 54  1.11726        25.500
 55  1.11882        25.100
 56  1.12021        24.800
 57  1.12184        24.500
 58  1.12385        24.200
 59  1.12551        24.000
 60  1.12748        23.800
 61  1.12984        23.600
 62  1.13263        23.400
 63  1.13591        23.200
 64  1.14167        22.900
 65  1.16352        21.900
 66  1.17330        21.400
 67  1.18371        20.800
 68  1.19498        20.100
 69  1.20961        19.150
 70  1.22858        17.900
 71  1.24330        16.950
 72  1.25522        16.200
 73  1.26591        15.550
 74  1.27613        14.950
 75  1.28673        14.350
 76  1.29687        13.800
 77  1.30743        13.250
 78  1.31848        12.700
 79  1.33004        12.150
 80  1.34216        11.600
 81  1.35370        11.100
 82  1.36575        10.600
 83  1.37839        10.100
 84  1.39167         9.600
 85  1.40425         9.150
 86  1.41745         8.700
 87  1.43131         8.250
 88  1.44744         7.750
 89  1.46602         7.200
 90  1.49062         6.500
 91  1.52793         5.460
 92  1.54950         4.840
 93  1.56344         4.420
 94  1.57404         4.080
 95  1.58162         3.820
 96  1.58770         3.600
 97  1.59400         3.360
 98  1.60102         3.080
 99  1.60848         2.770
100  1.61450         2.510
101  1.61913         2.300
102  1.62288         2.120
103  1.62600         1.960
104  1.62871         1.810
105  1.63105         1.670
106  1.63304         1.540
107  1.63470         1.420
108  1.63495         1.400
109  1.63728         1.200
