Sensor Model:   RX-102A-CD-0.05B
Serial Number:  U09897
Data Format:    4      (Log Ohms/Kelvin)
SetPoint Limit: 40      (Kelvin)
Temperature coefficient:  1 (Negative)
Number of Breakpoints:   140

No.   Units      Temperature (K)

  1  3.02085        44.929
  2  3.02276        40.000
  3  3.02325        38.900
  4  3.02372        37.900
  5  3.02427        36.800
  6  3.02490        35.600
  7  3.02551        34.500
  8  3.02609        33.500
  9  3.02671        32.500
 10  3.02737        31.500
 11  3.02807        30.500
 12  3.02882        29.500
 13  3.02962        28.500
 14  3.03047        27.500
 15  3.03128        26.600
 16  3.03204        25.800
 17  3.03298        24.900
 18  3.03418        23.800
 19  3.03511        23.000
 20  3.03600        22.300
 21  3.03709        21.500
 22  3.03840        20.600
 23  3.03942        19.950
 24  3.04024        19.450
 25  3.04110        18.950
 26  3.04200        18.450
 27  3.04295        17.950
 28  3.04385        17.500
 29  3.04479        17.050
 30  3.04579        16.600
 31  3.04684        16.150
 32  3.04794        15.700
 33  3.04910        15.250
 34  3.05033        14.800
 35  3.05162        14.350
 36  3.05300        13.900
 37  3.05429        13.500
 38  3.05566        13.100
 39  3.05710        12.700
 40  3.05864        12.300
 41  3.06026        11.900
 42  3.06199        11.500
 43  3.06383        11.100
 44  3.06579        10.700
 45  3.06763        10.350
 46  3.06958        10.000
 47  3.07166         9.650
 48  3.07388         9.300
 49  3.07625         8.950
 50  3.07880         8.600
 51  3.08154         8.250
 52  3.08448         7.900
 53  3.08766         7.550
 54  3.09061         7.250
 55  3.09376         6.950
 56  3.09716         6.650
 57  3.10084         6.350
 58  3.10483         6.050
 59  3.10903         5.760
 60  3.11345         5.480
 61  3.11826         5.200
 62  3.12314         4.940
 63  3.12846         4.680
 64  3.13434         4.420
 65  3.14080         4.160
 66  3.14625         3.960
 67  3.15124         3.790
 68  3.15660         3.620
 69  3.16204         3.460
 70  3.16790         3.300
 71  3.17426         3.140
 72  3.18114         2.980
 73  3.18814         2.830
 74  3.19526         2.690
 75  3.20299         2.550
 76  3.21140         2.410
 77  3.21993         2.280
 78  3.22924         2.150
 79  3.23949         2.020
 80  3.24990         1.900
 81  3.26135         1.780
 82  3.27407         1.660
 83  3.28705         1.550
 84  3.30146         1.440
 85  3.31765         1.330
 86  3.33422         1.230
 87  3.34435         1.175
 88  3.35214         1.135
 89  3.36138         1.090
 90  3.37007         1.050
 91  3.37924         1.010
 92  3.38898         0.970
 93  3.39933         0.930
 94  3.41036         0.890
 95  3.42212         0.850
 96  3.43470         0.810
 97  3.44647         0.775
 98  3.45898         0.740
 99  3.47238         0.705
100  3.48680         0.670
101  3.50236         0.635
102  3.51915         0.600
103  3.53467         0.570
104  3.55133         0.540
105  3.56936         0.510
106  3.58361         0.488
107  3.59729         0.468
108  3.61181         0.448
109  3.62729         0.428
110  3.64217         0.410
111  3.65798         0.392
112  3.67485         0.374
113  3.69287         0.356
114  3.71220         0.338
115  3.73069         0.322
116  3.75056         0.306
117  3.77075         0.291
118  3.79254         0.276
119  3.81758         0.260
120  3.84282         0.245
121  3.86828         0.231
122  3.89604         0.217
123  3.92635         0.203
124  3.95701         0.190
125  3.99047         0.177
126  4.02450         0.165
127  4.06200         0.153
128  4.10371         0.141
129  4.14644         0.130
130  4.18983         0.120
131  4.23833         0.110
132  4.28760         0.101
133  4.34340         0.092
134  4.40779         0.083
135  4.47415         0.075
136  4.55040         0.067
137  4.64054         0.059
138  4.73272         0.052
139  4.76460         0.050
140  4.88099         0.044
