Sensor Model:   RX-102A-CD-0.05B
Serial Number:  U09987
Data Format:    4      (Log Ohms/Kelvin)
SetPoint Limit: 40      (Kelvin)
Temperature coefficient:  1 (Negative)
Number of Breakpoints:   141

No.   Units      Temperature (K)

  1  3.02086        44.929
  2  3.02277        40.000
  3  3.02332        38.800
  4  3.02385        37.700
  5  3.02441        36.600
  6  3.02500        35.500
  7  3.02562        34.400
  8  3.02627        33.300
  9  3.02690        32.300
 10  3.02749        31.400
 11  3.02812        30.500
 12  3.02879        29.600
 13  3.02950        28.700
 14  3.03034        27.700
 15  3.03124        26.700
 16  3.03210        25.800
 17  3.03302        24.900
 18  3.03401        24.000
 19  3.03507        23.100
 20  3.03621        22.200
 21  3.03743        21.300
 22  3.03859        20.500
 23  3.03938        20.000
 24  3.04021        19.500
 25  3.04151        18.750
 26  3.04224        18.350
 27  3.04291        18.000
 28  3.04382        17.550
 29  3.04509        16.950
 30  3.04620        16.450
 31  3.04726        16.000
 32  3.04838        15.550
 33  3.04957        15.100
 34  3.05083        14.650
 35  3.05215        14.200
 36  3.05338        13.800
 37  3.05469        13.400
 38  3.05609        13.000
 39  3.05757        12.600
 40  3.05912        12.200
 41  3.06077        11.800
 42  3.06251        11.400
 43  3.06438        11.000
 44  3.06613        10.650
 45  3.06798        10.300
 46  3.06996         9.950
 47  3.07207         9.600
 48  3.07431         9.250
 49  3.07670         8.900
 50  3.07927         8.550
 51  3.08203         8.200
 52  3.08501         7.850
 53  3.08777         7.550
 54  3.09073         7.250
 55  3.09391         6.950
 56  3.09733         6.650
 57  3.10103         6.350
 58  3.10503         6.050
 59  3.10924         5.760
 60  3.11367         5.480
 61  3.11851         5.200
 62  3.12342         4.940
 63  3.12877         4.680
 64  3.13467         4.420
 65  3.14116         4.160
 66  3.14666         3.960
 67  3.15169         3.790
 68  3.15676         3.630
 69  3.16221         3.470
 70  3.16810         3.310
 71  3.17405         3.160
 72  3.18048         3.010
 73  3.18743         2.860
 74  3.19448         2.720
 75  3.20213         2.580
 76  3.21046         2.440
 77  3.21891         2.310
 78  3.22814         2.180
 79  3.23827         2.050
 80  3.24855         1.930
 81  3.25985         1.810
 82  3.27236         1.690
 83  3.28516         1.580
 84  3.29942         1.470
 85  3.31531         1.360
 86  3.33150         1.260
 87  3.34419         1.190
 88  3.35097         1.155
 89  3.36020         1.110
 90  3.36997         1.065
 91  3.37916         1.025
 92  3.38886         0.985
 93  3.39913         0.945
 94  3.41001         0.905
 95  3.42016         0.870
 96  3.43092         0.835
 97  3.44242         0.800
 98  3.45469         0.765
 99  3.46779         0.730
100  3.48181         0.695
101  3.49681         0.660
102  3.51296         0.625
103  3.52792         0.595
104  3.54398         0.565
105  3.56132         0.535
106  3.58005         0.505
107  3.59555         0.482
108  3.60985         0.462
109  3.62502         0.442
110  3.63959         0.424
111  3.65505         0.406
112  3.67156         0.388
113  3.68919         0.370
114  3.70806         0.352
115  3.72834         0.334
116  3.74774         0.318
117  3.76861         0.302
118  3.78987         0.287
119  3.81294         0.272
120  3.83946         0.256
121  3.86622         0.241
122  3.89510         0.226
123  3.92451         0.212
124  3.95450         0.199
125  3.98743         0.186
126  4.02338         0.173
127  4.05991         0.161
128  4.10044         0.149
129  4.14178         0.138
130  4.18772         0.127
131  4.23472         0.117
132  4.28747         0.107
133  4.34159         0.098
134  4.40339         0.089
135  4.46699         0.081
136  4.53998         0.073
137  4.62530         0.065
138  4.71379         0.058
139  4.80189         0.052
140  4.83707         0.050
141  4.96635         0.044
