Sensor Model:   RX-102A-CD-0.05B
Serial Number:  U09976
Data Format:    4      (Log Ohms/Kelvin)
SetPoint Limit: 40      (Kelvin)
Temperature coefficient:  1 (Negative)
Number of Breakpoints:   141

No.   Units      Temperature (K)

  1  3.02031        44.929
  2  3.02223        40.000
  3  3.02301        38.300
  4  3.02354        37.200
  5  3.02399        36.300
  6  3.02447        35.400
  7  3.02504        34.400
  8  3.02571        33.300
  9  3.02647        32.100
 10  3.02721        31.000
 11  3.02792        30.000
 12  3.02853        29.200
 13  3.02918        28.400
 14  3.03004        27.400
 15  3.03096        26.400
 16  3.03184        25.500
 17  3.03278        24.600
 18  3.03378        23.700
 19  3.03474        22.900
 20  3.03577        22.100
 21  3.03686        21.300
 22  3.03804        20.500
 23  3.03898        19.900
 24  3.03972        19.450
 25  3.04050        19.000
 26  3.04141        18.500
 27  3.04235        18.000
 28  3.04325        17.550
 29  3.04419        17.100
 30  3.04530        16.600
 31  3.04646        16.100
 32  3.04743        15.700
 33  3.04847        15.300
 34  3.04957        14.900
 35  3.05087        14.450
 36  3.05223        14.000
 37  3.05367        13.550
 38  3.05503        13.150
 39  3.05646        12.750
 40  3.05799        12.350
 41  3.05961        11.950
 42  3.06134        11.550
 43  3.06316        11.150
 44  3.06486        10.800
 45  3.06666        10.450
 46  3.06859        10.100
 47  3.07064         9.750
 48  3.07283         9.400
 49  3.07516         9.050
 50  3.07766         8.700
 51  3.08035         8.350
 52  3.08324         8.000
 53  3.08637         7.650
 54  3.08976         7.300
 55  3.09290         7.000
 56  3.09626         6.700
 57  3.09991         6.400
 58  3.10386         6.100
 59  3.10788         5.820
 60  3.11224         5.540
 61  3.11699         5.260
 62  3.12219         4.980
 63  3.12749         4.720
 64  3.13328         4.460
 65  3.13918         4.220
 66  3.14455         4.020
 67  3.14944         3.850
 68  3.15438         3.690
 69  3.15968         3.530
 70  3.16539         3.370
 71  3.17155         3.210
 72  3.17780         3.060
 73  3.18456         2.910
 74  3.19192         2.760
 75  3.19939         2.620
 76  3.20752         2.480
 77  3.21640         2.340
 78  3.22541         2.210
 79  3.23529         2.080
 80  3.24618         1.950
 81  3.25729         1.830
 82  3.26956         1.710
 83  3.28208         1.600
 84  3.29593         1.490
 85  3.31143         1.380
 86  3.32723         1.280
 87  3.33951         1.210
 88  3.34897         1.160
 89  3.35797         1.115
 90  3.36644         1.075
 91  3.37540         1.035
 92  3.38494         0.995
 93  3.39503         0.955
 94  3.40570         0.915
 95  3.41706         0.875
 96  3.42768         0.840
 97  3.43898         0.805
 98  3.45103         0.770
 99  3.46388         0.735
100  3.47762         0.700
101  3.49235         0.665
102  3.50821         0.630
103  3.52289         0.600
104  3.53859         0.570
105  3.55551         0.540
106  3.57375         0.510
107  3.58817         0.488
108  3.60204         0.468
109  3.61681         0.448
110  3.63255         0.428
111  3.64767         0.410
112  3.66372         0.392
113  3.68082         0.374
114  3.69906         0.356
115  3.71645         0.340
116  3.73515         0.324
117  3.75779         0.306
118  3.77799         0.291
119  3.79863         0.277
120  3.82421         0.261
121  3.85167         0.245
122  3.87943         0.230
123  3.90764         0.216
124  3.93626         0.203
125  3.96755         0.190
126  4.00174         0.177
127  4.03629         0.165
128  4.07453         0.153
129  4.11711         0.141
130  4.16064         0.130
131  4.20496         0.120
132  4.25453         0.110
133  4.30484         0.101
134  4.36185         0.092
135  4.42775         0.083
136  4.49593         0.075
137  4.57458         0.067
138  4.66739         0.059
139  4.76369         0.052
140  4.79725         0.050
141  4.91737         0.044
