Sensor Model:   RX-102A-CD-0.05B
Serial Number:  U10196
Data Format:    4      (Log Ohms/Kelvin)
SetPoint Limit: 40      (Kelvin)
Temperature coefficient:  1 (Negative)
Number of Breakpoints:   141

No.   Units      Temperature (K)

  1  3.01628        44.929
  2  3.01810        40.000
  3  3.01866        38.700
  4  3.01914        37.600
  5  3.01966        36.500
  6  3.02016        35.500
  7  3.02068        34.500
  8  3.02124        33.500
  9  3.02183        32.500
 10  3.02246        31.500
 11  3.02313        30.500
 12  3.02377        29.600
 13  3.02437        28.800
 14  3.02511        27.900
 15  3.02615        26.700
 16  3.02706        25.700
 17  3.02783        24.900
 18  3.02856        24.200
 19  3.02945        23.400
 20  3.03053        22.500
 21  3.03156        21.700
 22  3.03265        20.900
 23  3.03383        20.100
 24  3.03469        19.550
 25  3.03543        19.100
 26  3.03621        18.650
 27  3.03712        18.150
 28  3.03808        17.650
 29  3.03908        17.150
 30  3.04003        16.700
 31  3.04104        16.250
 32  3.04209        15.800
 33  3.04320        15.350
 34  3.04437        14.900
 35  3.04547        14.500
 36  3.04664        14.100
 37  3.04804        13.650
 38  3.04950        13.200
 39  3.05087        12.800
 40  3.05214        12.450
 41  3.05349        12.100
 42  3.05513        11.700
 43  3.05687        11.300
 44  3.05871        10.900
 45  3.06042        10.550
 46  3.06225        10.200
 47  3.06420         9.850
 48  3.06628         9.500
 49  3.06849         9.150
 50  3.07086         8.800
 51  3.07340         8.450
 52  3.07613         8.100
 53  3.07908         7.750
 54  3.08182         7.450
 55  3.08474         7.150
 56  3.08789         6.850
 57  3.09129         6.550
 58  3.09496         6.250
 59  3.09908         5.940
 60  3.10312         5.660
 61  3.10753         5.380
 62  3.11234         5.100
 63  3.11725         4.840
 64  3.12259         4.580
 65  3.12799         4.340
 66  3.13393         4.100
 67  3.13934         3.900
 68  3.14398         3.740
 69  3.14897         3.580
 70  3.15431         3.420
 71  3.16008         3.260
 72  3.16633         3.100
 73  3.17267         2.950
 74  3.17954         2.800
 75  3.18651         2.660
 76  3.19409         2.520
 77  3.20236         2.380
 78  3.21074         2.250
 79  3.21989         2.120
 80  3.22995         1.990
 81  3.24020         1.870
 82  3.25149         1.750
 83  3.26403         1.630
 84  3.27684         1.520
 85  3.29107         1.410
 86  3.30557         1.310
 87  3.32181         1.210
 88  3.32536         1.190
 89  3.32891         1.170
 90  3.34064         1.110
 91  3.35079         1.060
 92  3.35930         1.020
 93  3.36829         0.980
 94  3.37670         0.945
 95  3.38563         0.910
 96  3.39650         0.870
 97  3.40810         0.830
 98  3.41889         0.795
 99  3.43036         0.760
100  3.44262         0.725
101  3.45576         0.690
102  3.46988         0.655
103  3.48505         0.620
104  3.50132         0.585
105  3.51642         0.555
106  3.53278         0.525
107  3.54761         0.500
108  3.56147         0.478
109  3.57615         0.456
110  3.59034         0.436
111  3.60391         0.418
112  3.61832         0.400
113  3.63370         0.382
114  3.65013         0.364
115  3.66773         0.346
116  3.68661         0.328
117  3.70466         0.312
118  3.72420         0.296
119  3.74535         0.280
120  3.76822         0.264
121  3.79291         0.248
122  3.81796         0.233
123  3.84317         0.219
124  3.86854         0.206
125  3.89622         0.193
126  3.92659         0.180
127  3.95996         0.167
128  3.99384         0.155
129  4.02798         0.144
130  4.06579         0.133
131  4.10807         0.122
132  4.15124         0.112
133  4.19469         0.103
134  4.24374         0.094
135  4.30006         0.085
136  4.35787         0.077
137  4.42431         0.069
138  4.50217         0.061
139  4.58255         0.054
140  4.63727         0.050
141  4.74295         0.044
