Sensor Model:   DT-670-CU-HT-1.4L
Serial Number:  D6135692
Data Format:    2      (Volts/Kelvin)
SetPoint Limit: 325      (Kelvin)
Temperature coefficient:  1 (Negative)
Number of Breakpoints:   110

No.   Units      Temperature (K)

  1  .90600e-01    500.000
  2  .110239       491.000
  3  .136555       479.500
  4  .179181       461.500
  5  .265393       425.500
  6  .349522       390.000
  7  .452797       346.000
  8  .495036       330.153
  9  .506958       325.000
 10  .552940       305.000
 11  .590627       288.500
 12  .624631       273.500
 13  .656102       259.500
 14  .686193       246.000
 15  .714911       233.000
 16  .742266       220.500
 17  .768273       208.500
 18  .792945       197.000
 19  .816297       186.000
 20  .838350       175.500
 21  .859121       165.500
 22  .878621       156.000
 23  .896867       147.000
 24  .913876       138.500
 25  .929671       130.500
 26  .945243       122.500
 27  .959613       115.000
 28  .972817       108.000
 29  .985809       101.000
 30  .995847        95.500
 31  1.00396        91.000
 32  1.01197        86.500
 33  1.01988        82.000
 34  1.02770        77.500
 35  1.03540        73.000
 36  1.04301        68.500
 37  1.05053        64.000
 38  1.05877        59.000
 39  1.06755        53.600
 40  1.07593        48.400
 41  1.08069        45.400
 42  1.08539        42.400
 43  1.09035        39.300
 44  1.09556        36.100
 45  1.09857        34.300
 46  1.10134        32.700
 47  1.10387        31.300
 48  1.10631        30.000
 49  1.10828        29.000
 50  1.10997        28.200
 51  1.11155        27.500
 52  1.11302        26.900
 53  1.11437        26.400
 54  1.11586        25.900
 55  1.11724        25.500
 56  1.11881        25.100
 57  1.12021        24.800
 58  1.12186        24.500
 59  1.12388        24.200
 60  1.12556        24.000
 61  1.12754        23.800
 62  1.12992        23.600
 63  1.13275        23.400
 64  1.13606        23.200
 65  1.14187        22.900
 66  1.16381        21.900
 67  1.17358        21.400
 68  1.18400        20.800
 69  1.19532        20.100
 70  1.21002        19.150
 71  1.23060        17.800
 72  1.24461        16.900
 73  1.25661        16.150
 74  1.26736        15.500
 75  1.27764        14.900
 76  1.28833        14.300
 77  1.29854        13.750
 78  1.30917        13.200
 79  1.32029        12.650
 80  1.33191        12.100
 81  1.34410        11.550
 82  1.35570        11.050
 83  1.36782        10.550
 84  1.38053        10.050
 85  1.39389         9.550
 86  1.40654         9.100
 87  1.41981         8.650
 88  1.43373         8.200
 89  1.44994         7.700
 90  1.46859         7.150
 91  1.49500         6.400
 92  1.52872         5.460
 93  1.54960         4.860
 94  1.56356         4.440
 95  1.57418         4.100
 96  1.58177         3.840
 97  1.58785         3.620
 98  1.59416         3.380
 99  1.60118         3.100
100  1.60864         2.790
101  1.61490         2.520
102  1.61976         2.300
103  1.62351         2.120
104  1.62663         1.960
105  1.62935         1.810
106  1.63168         1.670
107  1.63366         1.540
108  1.63533         1.420
109  1.63557         1.400
110  1.63789         1.200
