Sensor Model:   RX-102A-CD-0.05B
Serial Number:  U05200
Data Format:    4      (Log Ohms/Kelvin)
SetPoint Limit: 40      (Kelvin)
Temperature coefficient:  1 (Negative)
Number of Breakpoints:   140

No.   Units      Temperature (K)

  1  3.01658        44.988
  2  3.01839        40.000
  3  3.01902        38.500
  4  3.01950        37.400
  5  3.01992        36.500
  6  3.02036        35.600
  7  3.02089        34.600
  8  3.02150        33.500
  9  3.02221        32.300
 10  3.02277        31.400
 11  3.02329        30.600
 12  3.02393        29.700
 13  3.02476        28.600
 14  3.02555        27.600
 15  3.02631        26.700
 16  3.02712        25.800
 17  3.02789        25.000
 18  3.02872        24.200
 19  3.02971        23.300
 20  3.03091        22.300
 21  3.03193        21.500
 22  3.03289        20.800
 23  3.03392        20.100
 24  3.03478        19.550
 25  3.03568        19.000
 26  3.03653        18.500
 27  3.03726        18.100
 28  3.03802        17.700
 29  3.03891        17.250
 30  3.03996        16.750
 31  3.04105        16.250
 32  3.04209        15.800
 33  3.04318        15.350
 34  3.04433        14.900
 35  3.04542        14.500
 36  3.04657        14.100
 37  3.04795        13.650
 38  3.04957        13.150
 39  3.05111        12.700
 40  3.05257        12.300
 41  3.05413        11.900
 42  3.05579        11.500
 43  3.05755        11.100
 44  3.05943        10.700
 45  3.06119        10.350
 46  3.06306        10.000
 47  3.06506         9.650
 48  3.06719         9.300
 49  3.06946         8.950
 50  3.07189         8.600
 51  3.07450         8.250
 52  3.07732         7.900
 53  3.07993         7.600
 54  3.08271         7.300
 55  3.08571         7.000
 56  3.08894         6.700
 57  3.09242         6.400
 58  3.09619         6.100
 59  3.10000         5.820
 60  3.10413         5.540
 61  3.10863         5.260
 62  3.11322         5.000
 63  3.11822         4.740
 64  3.12368         4.480
 65  3.12922         4.240
 66  3.13480         4.020
 67  3.13968         3.840
 68  3.14409         3.690
 69  3.14977         3.510
 70  3.15486         3.360
 71  3.16073         3.200
 72  3.16666         3.050
 73  3.17266         2.910
 74  3.18010         2.750
 75  3.18714         2.610
 76  3.19485         2.470
 77  3.20388         2.320
 78  3.21243         2.190
 79  3.22106         2.070
 80  3.23052         1.950
 81  3.24091         1.830
 82  3.25241         1.710
 83  3.26416         1.600
 84  3.27722         1.490
 85  3.29287         1.370
 86  3.30462         1.290
 87  3.32137         1.190
 88  3.32545         1.165
 89  3.32987         1.140
 90  3.33566         1.110
 91  3.34603         1.060
 92  3.35986         0.995
 93  3.36767         0.960
 94  3.37482         0.930
 95  3.38381         0.895
 96  3.39483         0.855
 97  3.40647         0.815
 98  3.41729         0.780
 99  3.42884         0.745
100  3.44125         0.710
101  3.45457         0.675
102  3.46888         0.640
103  3.48432         0.605
104  3.49865         0.575
105  3.51415         0.545
106  3.53109         0.515
107  3.54729         0.488
108  3.56116         0.466
109  3.57448         0.446
110  3.58859         0.426
111  3.60210         0.408
112  3.61489         0.392
113  3.62860         0.376
114  3.64343         0.360
115  3.66725         0.336
116  3.68779         0.316
117  3.69905         0.306
118  3.71647         0.292
119  3.74300         0.272
120  3.76562         0.256
121  3.78848         0.241
122  3.81174         0.227
123  3.83887         0.212
124  3.86453         0.199
125  3.89073         0.187
126  3.92479         0.173
127  3.95919         0.160
128  3.99123         0.149
129  4.02709         0.138
130  4.08089         0.123
131  4.11693         0.114
132  4.15918         0.105
133  4.21277         0.095
134  4.26676         0.086
135  4.32146         0.078
136  4.38488         0.070
137  4.45084         0.063
138  4.51875         0.057
139  4.61689         0.050
140  4.70646         0.045
