Sensor Model:   RX-102A-CD-0.05B
Serial Number:  U05791
Data Format:    4      (Log Ohms/Kelvin)
SetPoint Limit: 40      (Kelvin)
Temperature coefficient:  1 (Negative)
Number of Breakpoints:   141

No.   Units      Temperature (K)

  1  3.01764        44.921
  2  3.01943        40.000
  3  3.01985        39.000
  4  3.02025        38.100
  5  3.02078        37.000
  6  3.02143        35.700
  7  3.02211        34.400
  8  3.02276        33.200
  9  3.02334        32.200
 10  3.02383        31.400
 11  3.02429        30.700
 12  3.02486        29.900
 13  3.02591        28.500
 14  3.02663        27.600
 15  3.02732        26.800
 16  3.02825        25.800
 17  3.02923        24.800
 18  3.03008        24.000
 19  3.03099        23.200
 20  3.03208        22.300
 21  3.03325        21.400
 22  3.03437        20.600
 23  3.03512        20.100
 24  3.03582        19.650
 25  3.03682        19.050
 26  3.03768        18.550
 27  3.03840        18.150
 28  3.03926        17.700
 29  3.04047        17.100
 30  3.04142        16.650
 31  3.04230        16.250
 32  3.04325        15.850
 33  3.04436        15.400
 34  3.04553        14.950
 35  3.04676        14.500
 36  3.04792        14.100
 37  3.04915        13.700
 38  3.05044        13.300
 39  3.05180        12.900
 40  3.05324        12.500
 41  3.05477        12.100
 42  3.05640        11.700
 43  3.05813        11.300
 44  3.05997        10.900
 45  3.06195        10.500
 46  3.06380        10.150
 47  3.06576         9.800
 48  3.06785         9.450
 49  3.07009         9.100
 50  3.07248         8.750
 51  3.07504         8.400
 52  3.07780         8.050
 53  3.08077         7.700
 54  3.08353         7.400
 55  3.08649         7.100
 56  3.08968         6.800
 57  3.09311         6.500
 58  3.09683         6.200
 59  3.10086         5.900
 60  3.10495         5.620
 61  3.10940         5.340
 62  3.11393         5.080
 63  3.11888         4.820
 64  3.12427         4.560
 65  3.12970         4.320
 66  3.13570         4.080
 67  3.14141         3.870
 68  3.14579         3.720
 69  3.15115         3.550
 70  3.15657         3.390
 71  3.16205         3.240
 72  3.16795         3.090
 73  3.17434         2.940
 74  3.18128         2.790
 75  3.18884         2.640
 76  3.19650         2.500
 77  3.20424         2.370
 78  3.21269         2.240
 79  3.22188         2.110
 80  3.23115         1.990
 81  3.24135         1.870
 82  3.25264         1.750
 83  3.26412         1.640
 84  3.27686         1.530
 85  3.29232         1.410
 86  3.30661         1.310
 87  3.32306         1.210
 88  3.32498         1.200
 89  3.33213         1.160
 90  3.33973         1.120
 91  3.34979         1.070
 92  3.36133         1.015
 93  3.36909         0.980
 94  3.37621         0.950
 95  3.38388         0.920
 96  3.39341         0.885
 97  3.40636         0.840
 98  3.41848         0.800
 99  3.42977         0.765
100  3.44188         0.730
101  3.45482         0.695
102  3.46856         0.660
103  3.48123         0.630
104  3.49499         0.600
105  3.51001         0.570
106  3.52875         0.535
107  3.54584         0.505
108  3.55863         0.484
109  3.57033         0.466
110  3.58278         0.448
111  3.59744         0.428
112  3.61302         0.408
113  3.62785         0.390
114  3.64359         0.372
115  3.66039         0.354
116  3.67836         0.336
117  3.69545         0.320
118  3.70939         0.308
119  3.73106         0.291
120  3.75933         0.270
121  3.78234         0.254
122  3.80419         0.240
123  3.82630         0.227
124  3.85047         0.214
125  3.87883         0.200
126  3.90761         0.187
127  3.93905         0.174
128  3.97361         0.161
129  4.00869         0.149
130  4.04481         0.138
131  4.08519         0.127
132  4.12585         0.117
133  4.17146         0.107
134  4.22361         0.097
135  4.27719         0.088
136  4.33831         0.079
137  4.40171         0.071
138  4.46695         0.064
139  4.54602         0.057
140  4.64597         0.050
141  4.73390         0.045
