Sensor Model:   RX-102A-CD-0.05B
Serial Number:  U10272
Data Format:    4      (Log Ohms/Kelvin)
SetPoint Limit: 40      (Kelvin)
Temperature coefficient:  1 (Negative)
Number of Breakpoints:   141

No.   Units      Temperature (K)

  1  3.02160        44.922
  2  3.02359        40.000
  3  3.02409        38.900
  4  3.02456        37.900
  5  3.02507        36.900
  6  3.02560        35.900
  7  3.02623        34.800
  8  3.02694        33.600
  9  3.02769        32.400
 10  3.02829        31.500
 11  3.02885        30.700
 12  3.02953        29.800
 13  3.03042        28.700
 14  3.03127        27.700
 15  3.03208        26.800
 16  3.03295        25.900
 17  3.03387        25.000
 18  3.03486        24.100
 19  3.03592        23.200
 20  3.03707        22.300
 21  3.03829        21.400
 22  3.03944        20.600
 23  3.04022        20.100
 24  3.04096        19.650
 25  3.04191        19.100
 26  3.04289        18.550
 27  3.04374        18.100
 28  3.04463        17.650
 29  3.04558        17.200
 30  3.04657        16.750
 31  3.04773        16.250
 32  3.04883        15.800
 33  3.04999        15.350
 34  3.05121        14.900
 35  3.05250        14.450
 36  3.05386        14.000
 37  3.05513        13.600
 38  3.05649        13.200
 39  3.05793        12.800
 40  3.05945        12.400
 41  3.06106        12.000
 42  3.06277        11.600
 43  3.06460        11.200
 44  3.06655        10.800
 45  3.06863        10.400
 46  3.07057        10.050
 47  3.07263         9.700
 48  3.07484         9.350
 49  3.07720         9.000
 50  3.07974         8.650
 51  3.08246         8.300
 52  3.08538         7.950
 53  3.08854         7.600
 54  3.09146         7.300
 55  3.09460         7.000
 56  3.09798         6.700
 57  3.10163         6.400
 58  3.10558         6.100
 59  3.10957         5.820
 60  3.11391         5.540
 61  3.11830         5.280
 62  3.12308         5.020
 63  3.12832         4.760
 64  3.13403         4.500
 65  3.13981         4.260
 66  3.14616         4.020
 67  3.14876         3.930
 68  3.15256         3.800
 69  3.15757         3.640
 70  3.16298         3.480
 71  3.16882         3.320
 72  3.17473         3.170
 73  3.18110         3.020
 74  3.18800         2.870
 75  3.19550         2.720
 76  3.20313         2.580
 77  3.21143         2.440
 78  3.22052         2.300
 79  3.23049         2.160
 80  3.24064         2.030
 81  3.25096         1.910
 82  3.26235         1.790
 83  3.27396         1.680
 84  3.28681         1.570
 85  3.30109         1.460
 86  3.31684         1.350
 87  3.33143         1.260
 88  3.34598         1.180
 89  3.35268         1.145
 90  3.35982         1.110
 91  3.36953         1.065
 92  3.38089         1.015
 93  3.39049         0.975
 94  3.39942         0.940
 95  3.40893         0.905
 96  3.42049         0.865
 97  3.43283         0.825
 98  3.44433         0.790
 99  3.45654         0.755
100  3.46962         0.720
101  3.48370         0.685
102  3.49896         0.650
103  3.51546         0.615
104  3.53330         0.580
105  3.55255         0.545
106  3.57028         0.515
107  3.58486         0.492
108  3.59706         0.474
109  3.61004         0.456
110  3.62537         0.436
111  3.64327         0.414
112  3.66058         0.394
113  3.67729         0.376
114  3.69332         0.360
115  3.71265         0.342
116  3.73567         0.322
117  3.75787         0.304
118  3.77910         0.288
119  3.80051         0.273
120  3.82220         0.259
121  3.84586         0.245
122  3.87169         0.231
123  3.90184         0.216
124  3.93673         0.200
125  3.96748         0.187
126  3.99889         0.175
127  4.03664         0.162
128  4.07487         0.150
129  4.11401         0.139
130  4.15787         0.128
131  4.20199         0.118
132  4.24658         0.109
133  4.29709         0.100
134  4.35417         0.091
135  4.41894         0.082
136  4.48531         0.074
137  4.55286         0.067
138  4.62220         0.061
139  4.71835         0.054
140  4.78525         0.050
141  4.88397         0.045
