Sensor Model:   DT-670-CU-HT-1.4L
Serial Number:  D6150086
Data Format:    2      (Volts/Kelvin)
SetPoint Limit: 325      (Kelvin)
Temperature coefficient:  1 (Negative)
Number of Breakpoints:   109

No.   Units      Temperature (K)

  1  .90600e-01    500.000
  2  .110239       491.000
  3  .136555       479.500
  4  .179181       461.500
  5  .265393       425.500
  6  .349522       390.000
  7  .452797       346.000
  8  .493696       330.154
  9  .505644       325.000
 10  .550599       305.500
 11  .587218       289.500
 12  .621300       274.500
 13  .652857       260.500
 14  .683021       247.000
 15  .711818       234.000
 16  .739252       221.500
 17  .765332       209.500
 18  .790079       198.000
 19  .813505       187.000
 20  .835627       176.500
 21  .856463       166.500
 22  .876032       157.000
 23  .894345       148.000
 24  .912424       139.000
 25  .929261       130.500
 26  .944878       122.500
 27  .959294       115.000
 28  .972541       108.000
 29  .985576       101.000
 30  .995646        95.500
 31  1.00378        91.000
 32  1.01182        86.500
 33  1.01975        82.000
 34  1.02758        77.500
 35  1.03530        73.000
 36  1.04292        68.500
 37  1.05044        64.000
 38  1.05901        58.800
 39  1.06748        53.600
 40  1.07616        48.200
 41  1.08634        41.800
 42  1.09078        39.000
 43  1.09467        36.600
 44  1.09783        34.700
 45  1.10059        33.100
 46  1.10326        31.600
 47  1.10568        30.300
 48  1.10783        29.200
 49  1.10970        28.300
 50  1.11150        27.500
 51  1.11297        26.900
 52  1.11431        26.400
 53  1.11581        25.900
 54  1.11717        25.500
 55  1.11873        25.100
 56  1.12012        24.800
 57  1.12173        24.500
 58  1.12370        24.200
 59  1.12532        24.000
 60  1.12723        23.800
 61  1.12952        23.600
 62  1.13223        23.400
 63  1.13541        23.200
 64  1.14101        22.900
 65  1.15405        22.300
 66  1.16303        21.900
 67  1.17103        21.500
 68  1.18002        21.000
 69  1.19159        20.300
 70  1.20484        19.450
 71  1.22925        17.850
 72  1.24250        17.000
 73  1.25454        16.250
 74  1.26614        15.550
 75  1.27647        14.950
 76  1.28720        14.350
 77  1.29840        13.750
 78  1.30911        13.200
 79  1.32029        12.650
 80  1.33199        12.100
 81  1.34425        11.550
 82  1.35710        11.000
 83  1.36935        10.500
 84  1.38217        10.000
 85  1.39563         9.500
 86  1.40838         9.050
 87  1.42173         8.600
 88  1.43729         8.100
 89  1.45530         7.550
 90  1.47584         6.950
 91  1.53443         5.300
 92  1.55366         4.740
 93  1.56672         4.340
 94  1.57649         4.020
 95  1.57877         3.940
 96  1.58366         3.770
 97  1.58991         3.540
 98  1.59665         3.280
 99  1.60409         2.980
100  1.61175         2.660
101  1.61726         2.420
102  1.62161         2.220
103  1.62508         2.050
104  1.62794         1.900
105  1.63040         1.760
106  1.63251         1.630
107  1.63429         1.510
108  1.63577         1.400
109  1.63807         1.200
