Sensor Model:   RX-102A-CD-0.05B
Serial Number:  U05559
Data Format:    4      (Log Ohms/Kelvin)
SetPoint Limit: 40      (Kelvin)
Temperature coefficient:  1 (Negative)
Number of Breakpoints:   142

No.   Units      Temperature (K)

  1  3.01622        44.986
  2  3.01802        40.000
  3  3.01845        39.000
  4  3.01885        38.100
  5  3.01938        37.000
  6  3.02009        35.600
  7  3.02073        34.400
  8  3.02129        33.400
  9  3.02183        32.500
 10  3.02240        31.600
 11  3.02301        30.700
 12  3.02372        29.700
 13  3.02447        28.700
 14  3.02511        27.900
 15  3.02579        27.100
 16  3.02662        26.200
 17  3.02760        25.200
 18  3.02852        24.300
 19  3.02940        23.500
 20  3.03022        22.800
 21  3.03111        22.100
 22  3.03233        21.200
 23  3.03348        20.400
 24  3.03425        19.900
 25  3.03498        19.450
 26  3.03583        18.950
 27  3.03672        18.450
 28  3.03765        17.950
 29  3.03854        17.500
 30  3.03947        17.050
 31  3.04045        16.600
 32  3.04159        16.100
 33  3.04268        15.650
 34  3.04369        15.250
 35  3.04476        14.850
 36  3.04603        14.400
 37  3.04737        13.950
 38  3.04863        13.550
 39  3.04997        13.150
 40  3.05138        12.750
 41  3.05288        12.350
 42  3.05447        11.950
 43  3.05615        11.550
 44  3.05794        11.150
 45  3.05986        10.750
 46  3.06193        10.350
 47  3.06386        10.000
 48  3.06590         9.650
 49  3.06809         9.300
 50  3.07042         8.950
 51  3.07291         8.600
 52  3.07560         8.250
 53  3.07850         7.900
 54  3.08163         7.550
 55  3.08454         7.250
 56  3.08764         6.950
 57  3.09099         6.650
 58  3.09461         6.350
 59  3.09852         6.050
 60  3.10263         5.760
 61  3.10695         5.480
 62  3.11132         5.220
 63  3.11611         4.960
 64  3.12175         4.680
 65  3.12747         4.420
 66  3.13328         4.180
 67  3.13917         3.960
 68  3.14405         3.790
 69  3.14897         3.630
 70  3.15429         3.470
 71  3.16001         3.310
 72  3.16579         3.160
 73  3.17205         3.010
 74  3.17883         2.860
 75  3.18619         2.710
 76  3.19366         2.570
 77  3.20176         2.430
 78  3.21062         2.290
 79  3.21965         2.160
 80  3.22956         2.030
 81  3.23963         1.910
 82  3.25070         1.790
 83  3.26304         1.670
 84  3.27564         1.560
 85  3.28956         1.450
 86  3.30500         1.340
 87  3.32080         1.240
 88  3.33148         1.180
 89  3.33901         1.140
 90  3.34797         1.095
 91  3.35947         1.040
 92  3.36825         1.000
 93  3.37642         0.965
 94  3.38523         0.930
 95  3.39599         0.890
 96  3.40887         0.845
 97  3.42100         0.805
 98  3.43243         0.770
 99  3.44482         0.735
100  3.46924         0.670
101  3.47732         0.650
102  3.48401         0.635
103  3.49411         0.615
104  3.50729         0.590
105  3.52999         0.545
106  3.54615         0.515
107  3.55854         0.494
108  3.56876         0.478
109  3.57980         0.462
110  3.59312         0.444
111  3.61041         0.422
112  3.62860         0.400
113  3.64602         0.380
114  3.66268         0.362
115  3.67849         0.346
116  3.69338         0.332
117  3.71863         0.310
118  3.73778         0.294
119  3.75235         0.283
120  3.77572         0.267
121  3.80934         0.245
122  3.82947         0.233
123  3.85546         0.219
124  3.88372         0.205
125  3.91237         0.192
126  3.94384         0.179
127  3.97853         0.166
128  4.01627         0.153
129  4.05195         0.142
130  4.09168         0.131
131  4.13576         0.120
132  4.17677         0.111
133  4.22867         0.101
134  4.30828         0.087
135  4.35918         0.079
136  4.39814         0.074
137  4.46838         0.067
138  4.51093         0.063
139  4.56517         0.057
140  4.62196         0.052
141  4.65060         0.050
142  4.76441         0.045
