Sensor Model:   RX-102A-CD-0.05B
Serial Number:  U07469
Data Format:    4      (Log Ohms/Kelvin)
SetPoint Limit: 40      (Kelvin)
Temperature coefficient:  1 (Negative)
Number of Breakpoints:   140

No.   Units      Temperature (K)

  1  3.02175        45.016
  2  3.02370        40.000
  3  3.02424        38.800
  4  3.02475        37.700
  5  3.02525        36.700
  6  3.02578        35.700
  7  3.02640        34.600
  8  3.02723        33.200
  9  3.02798        32.000
 10  3.02850        31.200
 11  3.02906        30.400
 12  3.02982        29.400
 13  3.03070        28.300
 14  3.03137        27.500
 15  3.03219        26.600
 16  3.03325        25.500
 17  3.03407        24.700
 18  3.03484        24.000
 19  3.03591        23.100
 20  3.03717        22.100
 21  3.03825        21.300
 22  3.03941        20.500
 23  3.04051        19.800
 24  3.04124        19.350
 25  3.04193        18.950
 26  3.04275        18.500
 27  3.04370        18.000
 28  3.04470        17.500
 29  3.04564        17.050
 30  3.04662        16.600
 31  3.04766        16.150
 32  3.04876        15.700
 33  3.04991        15.250
 34  3.05113        14.800
 35  3.05227        14.400
 36  3.05348        14.000
 37  3.05476        13.600
 38  3.05628        13.150
 39  3.05789        12.700
 40  3.05940        12.300
 41  3.06081        11.950
 42  3.06230        11.600
 43  3.06411        11.200
 44  3.06604        10.800
 45  3.06783        10.450
 46  3.06973        10.100
 47  3.07177         9.750
 48  3.07394         9.400
 49  3.07626         9.050
 50  3.07875         8.700
 51  3.08141         8.350
 52  3.08428         8.000
 53  3.08738         7.650
 54  3.09025         7.350
 55  3.09333         7.050
 56  3.09665         6.750
 57  3.10023         6.450
 58  3.10411         6.150
 59  3.10817         5.860
 60  3.11243         5.580
 61  3.11708         5.300
 62  3.12179         5.040
 63  3.12695         4.780
 64  3.13259         4.520
 65  3.13830         4.280
 66  3.14458         4.040
 67  3.15000         3.850
 68  3.15491         3.690
 69  3.16052         3.520
 70  3.16583         3.370
 71  3.17197         3.210
 72  3.17861         3.050
 73  3.18537         2.900
 74  3.19273         2.750
 75  3.20073         2.600
 76  3.20885         2.460
 77  3.21712         2.330
 78  3.22691         2.190
 79  3.23684         2.060
 80  3.24688         1.940
 81  3.25793         1.820
 82  3.27017         1.700
 83  3.28267         1.590
 84  3.29659         1.480
 85  3.31218         1.370
 86  3.32966         1.260
 87  3.34214         1.190
 88  3.34972         1.150
 89  3.35770         1.110
 90  3.36616         1.070
 91  3.37509         1.030
 92  3.38455         0.990
 93  3.39457         0.950
 94  3.40522         0.910
 95  3.41657         0.870
 96  3.42870         0.830
 97  3.44006         0.795
 98  3.45212         0.760
 99  3.46502         0.725
100  3.47887         0.690
101  3.49383         0.655
102  3.51000         0.620
103  3.52747         0.585
104  3.54367         0.555
105  3.56110         0.525
106  3.57678         0.500
107  3.59009         0.480
108  3.60415         0.460
109  3.61908         0.440
110  3.63497         0.420
111  3.65023         0.402
112  3.66644         0.384
113  3.68378         0.366
114  3.70234         0.348
115  3.72224         0.330
116  3.74119         0.314
117  3.76285         0.297
118  3.78617         0.280
119  3.80845         0.265
120  3.83111         0.251
121  3.85580         0.237
122  3.88261         0.223
123  3.91172         0.209
124  3.94346         0.195
125  3.97566         0.182
126  4.01084         0.169
127  4.04675         0.157
128  4.08319         0.146
129  4.12387         0.135
130  4.16547         0.125
131  4.21191         0.115
132  4.26392         0.105
133  4.31677         0.096
134  4.37684         0.087
135  4.44627         0.078
136  4.51830         0.070
137  4.58251         0.064
138  4.68651         0.056
139  4.77444         0.050
140  4.86410         0.045
