Sensor Model:   RX-102A-CD-0.05B
Serial Number:  U07510
Data Format:    4      (Log Ohms/Kelvin)
SetPoint Limit: 40      (Kelvin)
Temperature coefficient:  1 (Negative)
Number of Breakpoints:   139

No.   Units      Temperature (K)

  1  3.02229        45.016
  2  3.02429        40.000
  3  3.02507        38.300
  4  3.02560        37.200
  5  3.02606        36.300
  6  3.02655        35.400
  7  3.02719        34.300
  8  3.02805        32.900
  9  3.02875        31.800
 10  3.02929        31.000
 11  3.02988        30.200
 12  3.03059        29.300
 13  3.03142        28.300
 14  3.03248        27.100
 15  3.03332        26.200
 16  3.03412        25.400
 17  3.03508        24.500
 18  3.03611        23.600
 19  3.03722        22.700
 20  3.03827        21.900
 21  3.03940        21.100
 22  3.04061        20.300
 23  3.04159        19.700
 24  3.04244        19.200
 25  3.04333        18.700
 26  3.04417        18.250
 27  3.04505        17.800
 28  3.04609        17.300
 29  3.04730        16.750
 30  3.04833        16.300
 31  3.04930        15.900
 32  3.05045        15.450
 33  3.05166        15.000
 34  3.05293        14.550
 35  3.05413        14.150
 36  3.05539        13.750
 37  3.05673        13.350
 38  3.05814        12.950
 39  3.05963        12.550
 40  3.06122        12.150
 41  3.06290        11.750
 42  3.06469        11.350
 43  3.06661        10.950
 44  3.06865        10.550
 45  3.07084        10.150
 46  3.07288         9.800
 47  3.07506         9.450
 48  3.07739         9.100
 49  3.07988         8.750
 50  3.08256         8.400
 51  3.08544         8.050
 52  3.08855         7.700
 53  3.09143         7.400
 54  3.09451         7.100
 55  3.09783         6.800
 56  3.10142         6.500
 57  3.10530         6.200
 58  3.10951         5.900
 59  3.11378         5.620
 60  3.11843         5.340
 61  3.12316         5.080
 62  3.12832         4.820
 63  3.13399         4.560
 64  3.14018         4.300
 65  3.14649         4.060
 66  3.15194         3.870
 67  3.15689         3.710
 68  3.16254         3.540
 69  3.16827         3.380
 70  3.17404         3.230
 71  3.18029         3.080
 72  3.18706         2.930
 73  3.19439         2.780
 74  3.20180         2.640
 75  3.20931         2.510
 76  3.21811         2.370
 77  3.22772         2.230
 78  3.23753         2.100
 79  3.24830         1.970
 80  3.25928         1.850
 81  3.27142         1.730
 82  3.28495         1.610
 83  3.29874         1.500
 84  3.31286         1.400
 85  3.33811         1.240
 86  3.34548         1.200
 87  3.35457         1.155
 88  3.36807         1.090
 89  3.37576         1.055
 90  3.38509         1.015
 91  3.39501         0.975
 92  3.40546         0.935
 93  3.41647         0.895
 94  3.42675         0.860
 95  3.43767         0.825
 96  3.44935         0.790
 97  3.46180         0.755
 98  3.47509         0.720
 99  3.48941         0.685
100  3.50491         0.650
101  3.52171         0.615
102  3.53989         0.580
103  3.55957         0.545
104  3.57777         0.515
105  3.59271         0.492
106  3.60653         0.472
107  3.62128         0.452
108  3.63702         0.432
109  3.65384         0.412
110  3.67182         0.392
111  3.69099         0.372
112  3.70934         0.354
113  3.72681         0.338
114  3.74579         0.322
115  3.77514         0.299
116  3.79448         0.285
117  3.81724         0.270
118  3.84513         0.253
119  3.86986         0.239
120  3.89488         0.226
121  3.92447         0.212
122  3.95903         0.197
123  3.99173         0.184
124  4.02482         0.172
125  4.06109         0.160
126  4.09760         0.149
127  4.13812         0.138
128  4.17962         0.128
129  4.22620         0.118
130  4.27838         0.108
131  4.33089         0.099
132  4.39047         0.090
133  4.45935         0.081
134  4.53090         0.073
135  4.60437         0.066
136  4.69210         0.059
137  4.78417         0.053
138  4.83898         0.050
139  4.94710         0.045
