Sensor Model:   RX-102A-CD-0.05B
Serial Number:  U07507
Data Format:    4      (Log Ohms/Kelvin)
SetPoint Limit: 40      (Kelvin)
Temperature coefficient:  1 (Negative)
Number of Breakpoints:   140

No.   Units      Temperature (K)

  1  3.02215        45.016
  2  3.02410        40.000
  3  3.02464        38.800
  4  3.02516        37.700
  5  3.02570        36.600
  6  3.02628        35.500
  7  3.02690        34.400
  8  3.02749        33.400
  9  3.02811        32.400
 10  3.02878        31.400
 11  3.02948        30.400
 12  3.03024        29.400
 13  3.03103        28.400
 14  3.03187        27.400
 15  3.03269        26.500
 16  3.03355        25.600
 17  3.03438        24.800
 18  3.03526        24.000
 19  3.03633        23.100
 20  3.03759        22.100
 21  3.03866        21.300
 22  3.03968        20.600
 23  3.04069        19.950
 24  3.04151        19.450
 25  3.04228        19.000
 26  3.04309        18.550
 27  3.04404        18.050
 28  3.04503        17.550
 29  3.04596        17.100
 30  3.04694        16.650
 31  3.04798        16.200
 32  3.04907        15.750
 33  3.05022        15.300
 34  3.05142        14.850
 35  3.05270        14.400
 36  3.05390        14.000
 37  3.05517        13.600
 38  3.05652        13.200
 39  3.05795        12.800
 40  3.05945        12.400
 41  3.06105        12.000
 42  3.06274        11.600
 43  3.06454        11.200
 44  3.06623        10.850
 45  3.06802        10.500
 46  3.06992        10.150
 47  3.07194         9.800
 48  3.07407         9.450
 49  3.07636         9.100
 50  3.07881         8.750
 51  3.08146         8.400
 52  3.08430         8.050
 53  3.08738         7.700
 54  3.09022         7.400
 55  3.09326         7.100
 56  3.09653         6.800
 57  3.10006         6.500
 58  3.10389         6.200
 59  3.10804         5.900
 60  3.11225         5.620
 61  3.11683         5.340
 62  3.12149         5.080
 63  3.12659         4.820
 64  3.13261         4.540
 65  3.13876         4.280
 66  3.14505         4.040
 67  3.15046         3.850
 68  3.15535         3.690
 69  3.16097         3.520
 70  3.16666         3.360
 71  3.17283         3.200
 72  3.17952         3.040
 73  3.18631         2.890
 74  3.19318         2.750
 75  3.20064         2.610
 76  3.20876         2.470
 77  3.21763         2.330
 78  3.22736         2.190
 79  3.23728         2.060
 80  3.24734         1.940
 81  3.25839         1.820
 82  3.27065         1.700
 83  3.28315         1.590
 84  3.29703         1.480
 85  3.31265         1.370
 86  3.33172         1.250
 87  3.34158         1.195
 88  3.34926         1.155
 89  3.35936         1.105
 90  3.36895         1.060
 91  3.37796         1.020
 92  3.38751         0.980
 93  3.39768         0.940
 94  3.40854         0.900
 95  3.42013         0.860
 96  3.43249         0.820
 97  3.44406         0.785
 98  3.45635         0.750
 99  3.46951         0.715
100  3.48368         0.680
101  3.49901         0.645
102  3.51556         0.610
103  3.53081         0.580
104  3.54713         0.550
105  3.56479         0.520
106  3.58132         0.494
107  3.59621         0.472
108  3.61057         0.452
109  3.62428         0.434
110  3.63883         0.416
111  3.65434         0.398
112  3.67087         0.380
113  3.68849         0.362
114  3.70732         0.344
115  3.72528         0.328
116  3.74450         0.312
117  3.76667         0.295
118  3.79055         0.278
119  3.81480         0.262
120  3.83944         0.247
121  3.86454         0.233
122  3.89206         0.219
123  3.92422         0.204
124  3.95675         0.190
125  3.98745         0.178
126  4.02129         0.166
127  4.05827         0.154
128  4.09563         0.143
129  4.13361         0.133
130  4.17626         0.123
131  4.22932         0.112
132  4.28356         0.102
133  4.33882         0.093
134  4.40221         0.084
135  4.46748         0.076
136  4.53403         0.069
137  4.61213         0.062
138  4.69246         0.056
139  4.79142         0.050
140  4.89247         0.045
