Sensor Model:   RX-102A-CD-0.05B
Serial Number:  U07512
Data Format:    4      (Log Ohms/Kelvin)
SetPoint Limit: 40      (Kelvin)
Temperature coefficient:  1 (Negative)
Number of Breakpoints:   142

No.   Units      Temperature (K)

  1  3.02273        45.016
  2  3.02471        40.000
  3  3.02525        38.800
  4  3.02577        37.700
  5  3.02633        36.600
  6  3.02691        35.500
  7  3.02753        34.400
  8  3.02819        33.300
  9  3.02883        32.300
 10  3.02943        31.400
 11  3.03007        30.500
 12  3.03099        29.300
 13  3.03186        28.200
 14  3.03254        27.400
 15  3.03328        26.600
 16  3.03416        25.700
 17  3.03520        24.700
 18  3.03619        23.800
 19  3.03713        23.000
 20  3.03814        22.200
 21  3.03923        21.400
 22  3.04039        20.600
 23  3.04132        20.000
 24  3.04214        19.500
 25  3.04300        19.000
 26  3.04390        18.500
 27  3.04475        18.050
 28  3.04564        17.600
 29  3.04668        17.100
 30  3.04778        16.600
 31  3.04882        16.150
 32  3.04979        15.750
 33  3.05096        15.300
 34  3.05218        14.850
 35  3.05347        14.400
 36  3.05467        14.000
 37  3.05595        13.600
 38  3.05729        13.200
 39  3.05871        12.800
 40  3.06021        12.400
 41  3.06181        12.000
 42  3.06350        11.600
 43  3.06531        11.200
 44  3.06725        10.800
 45  3.06905        10.450
 46  3.07096        10.100
 47  3.07300         9.750
 48  3.07517         9.400
 49  3.07749         9.050
 50  3.07997         8.700
 51  3.08263         8.350
 52  3.08550         8.000
 53  3.08816         7.700
 54  3.09100         7.400
 55  3.09406         7.100
 56  3.09735         6.800
 57  3.10089         6.500
 58  3.10472         6.200
 59  3.10888         5.900
 60  3.11310         5.620
 61  3.11769         5.340
 62  3.12235         5.080
 63  3.12745         4.820
 64  3.13304         4.560
 65  3.13915         4.300
 66  3.14537         4.060
 67  3.15076         3.870
 68  3.15595         3.700
 69  3.16153         3.530
 70  3.16683         3.380
 71  3.17295         3.220
 72  3.17955         3.060
 73  3.18581         2.920
 74  3.19259         2.780
 75  3.19995         2.640
 76  3.20790         2.500
 77  3.21596         2.370
 78  3.22477         2.240
 79  3.23437         2.110
 80  3.24408         1.990
 81  3.25478         1.870
 82  3.26652         1.750
 83  3.27841         1.640
 84  3.29167         1.530
 85  3.30653         1.420
 86  3.32307         1.310
 87  3.34007         1.210
 88  3.34299         1.195
 89  3.34954         1.160
 90  3.35847         1.115
 91  3.36691         1.075
 92  3.37588         1.035
 93  3.38541         0.995
 94  3.39549         0.955
 95  3.40613         0.915
 96  3.41741         0.875
 97  3.42795         0.840
 98  3.43913         0.805
 99  3.45105         0.770
100  3.46377         0.735
101  3.47739         0.700
102  3.49199         0.665
103  3.50545         0.635
104  3.51987         0.605
105  3.53543         0.575
106  3.55214         0.545
107  3.57003         0.515
108  3.58477         0.492
109  3.59838         0.472
110  3.61289         0.452
111  3.62835         0.432
112  3.64481         0.412
113  3.66234         0.392
114  3.67917         0.374
115  3.69705         0.356
116  3.71412         0.340
117  3.73250         0.324
118  3.75485         0.306
119  3.77606         0.290
120  3.79758         0.275
121  3.82082         0.260
122  3.84586         0.245
123  3.87137         0.231
124  3.89934         0.217
125  3.93199         0.202
126  3.96508         0.188
127  3.99632         0.176
128  4.03067         0.164
129  4.06855         0.152
130  4.10717         0.141
131  4.15023         0.130
132  4.19837         0.119
133  4.24802         0.109
134  4.30462         0.099
135  4.36266         0.090
136  4.42132         0.082
137  4.48904         0.074
138  4.55803         0.067
139  4.62791         0.061
140  4.71140         0.055
141  4.79490         0.050
142  4.89716         0.045
