Sensor Model:   RX-102A-CD-0.05B
Serial Number:  U09023
Data Format:    4      (Log Ohms/Kelvin)
SetPoint Limit: 40      (Kelvin)
Temperature coefficient:  1 (Negative)
Number of Breakpoints:   141

No.   Units      Temperature (K)

  1  3.01725        45.079
  2  3.01913        40.000
  3  3.01969        38.700
  4  3.02019        37.600
  5  3.02071        36.500
  6  3.02126        35.400
  7  3.02185        34.300
  8  3.02241        33.300
  9  3.02301        32.300
 10  3.02364        31.300
 11  3.02425        30.400
 12  3.02490        29.500
 13  3.02559        28.600
 14  3.02649        27.500
 15  3.02726        26.600
 16  3.02790        25.900
 17  3.02868        25.100
 18  3.02964        24.200
 19  3.03065        23.300
 20  3.03161        22.500
 21  3.03276        21.600
 22  3.03400        20.700
 23  3.03488        20.100
 24  3.03560        19.650
 25  3.03660        19.050
 26  3.03756        18.500
 27  3.03837        18.050
 28  3.03924        17.600
 29  3.04015        17.150
 30  3.04110        16.700
 31  3.04211        16.250
 32  3.04317        15.800
 33  3.04429        15.350
 34  3.04547        14.900
 35  3.04672        14.450
 36  3.04803        14.000
 37  3.04926        13.600
 38  3.05056        13.200
 39  3.05195        12.800
 40  3.05343        12.400
 41  3.05500        12.000
 42  3.05668        11.600
 43  3.05845        11.200
 44  3.06032        10.800
 45  3.06206        10.450
 46  3.06391        10.100
 47  3.06588         9.750
 48  3.06800         9.400
 49  3.07026         9.050
 50  3.07269         8.700
 51  3.07531         8.350
 52  3.07812         8.000
 53  3.08115         7.650
 54  3.08395         7.350
 55  3.08695         7.050
 56  3.09018         6.750
 57  3.09366         6.450
 58  3.09743         6.150
 59  3.10138         5.860
 60  3.10553         5.580
 61  3.11005         5.300
 62  3.11464         5.040
 63  3.11967         4.780
 64  3.12518         4.520
 65  3.13122         4.260
 66  3.13735         4.020
 67  3.14266         3.830
 68  3.14778         3.660
 69  3.15297         3.500
 70  3.15889         3.330
 71  3.16453         3.180
 72  3.17064         3.030
 73  3.17726         2.880
 74  3.18394         2.740
 75  3.19119         2.600
 76  3.19909         2.460
 77  3.20772         2.320
 78  3.21649         2.190
 79  3.22609         2.060
 80  3.23666         1.930
 81  3.24741         1.810
 82  3.25826         1.700
 83  3.27025         1.590
 84  3.28367         1.480
 85  3.29870         1.370
 86  3.31708         1.250
 87  3.32373         1.210
 88  3.32696         1.190
 89  3.33213         1.160
 90  3.33777         1.130
 91  3.34489         1.095
 92  3.35568         1.045
 93  3.36697         0.995
 94  3.37651         0.955
 95  3.38659         0.915
 96  3.39734         0.875
 97  3.40738         0.840
 98  3.41802         0.805
 99  3.42934         0.770
100  3.44140         0.735
101  3.45431         0.700
102  3.46823         0.665
103  3.48325         0.630
104  3.49941         0.595
105  3.51433         0.565
106  3.53035         0.535
107  3.54774         0.505
108  3.56212         0.482
109  3.57538         0.462
110  3.58940         0.442
111  3.60427         0.422
112  3.62007         0.402
113  3.63525         0.384
114  3.65149         0.366
115  3.66896         0.348
116  3.68769         0.330
117  3.70546         0.314
118  3.72580         0.297
119  3.74776         0.280
120  3.77006         0.264
121  3.79272         0.249
122  3.81577         0.235
123  3.84101         0.221
124  3.87047         0.206
125  3.90004         0.192
126  3.92772         0.180
127  3.95832         0.168
128  3.99199         0.156
129  4.02903         0.144
130  4.06688         0.133
131  4.10527         0.123
132  4.14810         0.113
133  4.19617         0.103
134  4.25059         0.093
135  4.30680         0.084
136  4.36485         0.076
137  4.43186         0.068
138  4.50214         0.061
139  4.58791         0.054
140  4.64721         0.050
141  4.73707         0.045
