Sensor Model:   DT-670-CU-HT-1.4L
Serial Number:  D6135894
Data Format:    2      (Volts/Kelvin)
SetPoint Limit: 325      (Kelvin)
Temperature coefficient:  1 (Negative)
Number of Breakpoints:   106

No.   Units      Temperature (K)

  1  .90600e-01    500.000
  2  .110239       491.000
  3  .136555       479.500
  4  .179181       461.500
  5  .265393       425.500
  6  .349522       390.000
  7  .452797       346.000
  8  .486430       329.973
  9  .498076       325.000
 10  .543495       305.500
 11  .582818       288.500
 12  .618421       273.000
 13  .651456       258.500
 14  .683086       244.500
 15  .712198       231.500
 16  .739943       219.000
 17  .766331       207.000
 18  .791375       195.500
 19  .815086       184.500
 20  .837484       174.000
 21  .858577       164.000
 22  .878380       154.500
 23  .896914       145.500
 24  .914186       137.000
 25  .930215       129.000
 26  .946022       121.000
 27  .960615       113.500
 28  .974012       106.500
 29  .985303       100.500
 30  .994577        95.500
 31  1.00282        91.000
 32  1.01095        86.500
 33  1.01897        82.000
 34  1.02688        77.500
 35  1.03467        73.000
 36  1.04235        68.500
 37  1.04992        64.000
 38  1.05821        59.000
 39  1.06606        54.200
 40  1.07446        49.000
 41  1.08980        39.400
 42  1.09371        37.000
 43  1.09690        35.100
 44  1.09985        33.400
 45  1.10272        31.800
 46  1.10497        30.600
 47  1.10695        29.600
 48  1.10924        28.500
 49  1.11081        27.800
 50  1.11252        27.100
 51  1.11414        26.500
 52  1.11565        26.000
 53  1.11703        25.600
 54  1.11861        25.200
 55  1.11999        24.900
 56  1.12161        24.600
 57  1.12359        24.300
 58  1.12521        24.100
 59  1.12712        23.900
 60  1.12943        23.700
 61  1.13219        23.500
 62  1.13544        23.300
 63  1.14125        23.000
 64  1.16152        22.100
 65  1.16982        21.700
 66  1.17900        21.200
 67  1.19063        20.500
 68  1.20311        19.700
 69  1.23265        17.750
 70  1.24659        16.850
 71  1.25853        16.100
 72  1.27004        15.400
 73  1.28110        14.750
 74  1.29171        14.150
 75  1.30182        13.600
 76  1.31234        13.050
 77  1.32331        12.500
 78  1.33479        11.950
 79  1.34681        11.400
 80  1.35825        10.900
 81  1.37022        10.400
 82  1.38278         9.900
 83  1.39599         9.400
 84  1.40853         8.950
 85  1.42168         8.500
 86  1.43552         8.050
 87  1.45163         7.550
 88  1.47345         6.900
 89  1.52039         5.540
 90  1.54253         4.880
 91  1.55667         4.440
 92  1.56695         4.100
 93  1.57432         3.840
 94  1.58051         3.610
 95  1.58718         3.350
 96  1.59506         3.030
 97  1.60290         2.700
 98  1.60861         2.450
 99  1.61317         2.240
100  1.61685         2.060
101  1.61989         1.900
102  1.62237         1.760
103  1.62449         1.630
104  1.62627         1.510
105  1.62774         1.400
106  1.62990         1.214
