Sensor Model:   DT-670-CU-HT-1.4L
Serial Number:  D6166990
Data Format:    2      (Volts/Kelvin)
SetPoint Limit: 325      (Kelvin)
Temperature coefficient:  1 (Negative)
Number of Breakpoints:   109

No.   Units      Temperature (K)

  1  .90600e-01    500.000
  2  .110239       491.000
  3  .136555       479.500
  4  .179181       461.500
  5  .265393       425.500
  6  .349522       390.000
  7  .452797       346.000
  8  .486322       330.010
  9  .498025       325.000
 10  .549120       303.000
 11  .587214       286.500
 12  .623880       270.500
 13  .656852       256.000
 14  .686167       243.000
 15  .715216       230.000
 16  .742901       217.500
 17  .769219       205.500
 18  .795268       193.500
 19  .818895       182.500
 20  .841202       172.000
 21  .862211       162.000
 22  .881941       152.500
 23  .900407       143.500
 24  .917630       135.000
 25  .934626       126.500
 26  .950387       118.500
 27  .964939       111.000
 28  .978303       104.000
 29  .988634        98.500
 30  .996978        94.000
 31  1.00522        89.500
 32  1.01336        85.000
 33  1.02138        80.500
 34  1.02930        76.000
 35  1.03710        71.500
 36  1.04480        67.000
 37  1.05155        63.000
 38  1.05920        58.400
 39  1.06742        53.400
 40  1.07587        48.200
 41  1.08519        42.400
 42  1.09031        39.200
 43  1.09423        36.800
 44  1.09742        34.900
 45  1.10037        33.200
 46  1.10307        31.700
 47  1.10533        30.500
 48  1.10750        29.400
 49  1.10938        28.500
 50  1.11096        27.800
 51  1.11241        27.200
 52  1.11400        26.600
 53  1.11548        26.100
 54  1.11682        25.700
 55  1.11835        25.300
 56  1.11970        25.000
 57  1.12125        24.700
 58  1.12314        24.400
 59  1.12467        24.200
 60  1.12649        24.000
 61  1.12869        23.800
 62  1.13137        23.600
 63  1.13455        23.400
 64  1.13830        23.200
 65  1.14711        22.800
 66  1.15895        22.300
 67  1.16978        21.800
 68  1.17945        21.300
 69  1.19357        20.500
 70  1.20931        19.550
 71  1.23608        17.900
 72  1.25100        17.000
 73  1.26383        16.250
 74  1.27618        15.550
 75  1.28808        14.900
 76  1.29951        14.300
 77  1.31140        13.700
 78  1.32381        13.100
 79  1.33568        12.550
 80  1.34805        12.000
 81  1.36097        11.450
 82  1.37445        10.900
 83  1.38726        10.400
 84  1.40065         9.900
 85  1.41471         9.400
 86  1.42802         8.950
 87  1.44196         8.500
 88  1.45822         8.000
 89  1.47700         7.450
 90  1.50534         6.650
 91  1.53731         5.760
 92  1.56030         5.100
 93  1.57702         4.600
 94  1.58902         4.220
 95  1.59758         3.930
 96  1.60430         3.690
 97  1.61124         3.430
 98  1.61993         3.090
 99  1.62834         2.750
100  1.63452         2.490
101  1.63926         2.280
102  1.64287         2.110
103  1.64584         1.960
104  1.64840         1.820
105  1.65060         1.690
106  1.65246         1.570
107  1.65417         1.450
108  1.65482         1.400
109  1.65702         1.210
