Sensor Model:   RX-102A-CD-0.05B
Serial Number:  U07531
Data Format:    4      (Log Ohms/Kelvin)
SetPoint Limit: 40      (Kelvin)
Temperature coefficient:  1 (Negative)
Number of Breakpoints:   140

No.   Units      Temperature (K)

  1  3.02159        44.929
  2  3.02352        40.000
  3  3.02397        39.000
  4  3.02445        38.000
  5  3.02506        36.800
  6  3.02581        35.400
  7  3.02648        34.200
  8  3.02707        33.200
  9  3.02770        32.200
 10  3.02837        31.200
 11  3.02907        30.200
 12  3.02975        29.300
 13  3.03047        28.400
 14  3.03142        27.300
 15  3.03233        26.300
 16  3.03311        25.500
 17  3.03405        24.600
 18  3.03506        23.700
 19  3.03603        22.900
 20  3.03706        22.100
 21  3.03830        21.200
 22  3.03947        20.400
 23  3.04033        19.850
 24  3.04108        19.400
 25  3.04194        18.900
 26  3.04285        18.400
 27  3.04372        17.950
 28  3.04463        17.500
 29  3.04558        17.050
 30  3.04669        16.550
 31  3.04786        16.050
 32  3.04896        15.600
 33  3.05001        15.200
 34  3.05125        14.750
 35  3.05271        14.250
 36  3.05409        13.800
 37  3.05540        13.400
 38  3.05679        13.000
 39  3.05826        12.600
 40  3.05981        12.200
 41  3.06146        11.800
 42  3.06299        11.450
 43  3.06462        11.100
 44  3.06635        10.750
 45  3.06844        10.350
 46  3.07068         9.950
 47  3.07277         9.600
 48  3.07501         9.250
 49  3.07740         8.900
 50  3.07997         8.550
 51  3.08273         8.200
 52  3.08570         7.850
 53  3.08846         7.550
 54  3.09140         7.250
 55  3.09457         6.950
 56  3.09799         6.650
 57  3.10168         6.350
 58  3.10568         6.050
 59  3.10988         5.760
 60  3.11429         5.480
 61  3.11876         5.220
 62  3.12362         4.960
 63  3.12895         4.700
 64  3.13478         4.440
 65  3.14120         4.180
 66  3.14662         3.980
 67  3.15160         3.810
 68  3.15692         3.640
 69  3.16232         3.480
 70  3.16815         3.320
 71  3.17445         3.160
 72  3.18085         3.010
 73  3.18777         2.860
 74  3.19480         2.720
 75  3.20241         2.580
 76  3.21069         2.440
 77  3.21909         2.310
 78  3.22826         2.180
 79  3.23830         2.050
 80  3.24851         1.930
 81  3.25974         1.810
 82  3.27220         1.690
 83  3.28490         1.580
 84  3.29899         1.470
 85  3.31478         1.360
 86  3.33087         1.260
 87  3.34248         1.195
 88  3.35004         1.155
 89  3.35803         1.115
 90  3.36649         1.075
 91  3.37542         1.035
 92  3.38486         0.995
 93  3.39488         0.955
 94  3.40552         0.915
 95  3.41687         0.875
 96  3.42901         0.835
 97  3.44038         0.800
 98  3.45248         0.765
 99  3.46543         0.730
100  3.47929         0.695
101  3.49413         0.660
102  3.51010         0.625
103  3.52484         0.595
104  3.54063         0.565
105  3.55770         0.535
106  3.57619         0.505
107  3.59150         0.482
108  3.60561         0.462
109  3.62059         0.442
110  3.63657         0.422
111  3.65192         0.404
112  3.66825         0.386
113  3.68573         0.368
114  3.70445         0.350
115  3.72455         0.332
116  3.74376         0.316
117  3.76447         0.300
118  3.78691         0.284
119  3.80954         0.269
120  3.83240         0.255
121  3.85893         0.240
122  3.88774         0.225
123  3.91686         0.211
124  3.94628         0.198
125  3.97843         0.185
126  4.01393         0.172
127  4.05313         0.159
128  4.09321         0.147
129  4.13426         0.136
130  4.18008         0.125
131  4.22682         0.115
132  4.27942         0.105
133  4.33357         0.096
134  4.39540         0.087
135  4.45916         0.079
136  4.53266         0.071
137  4.61919         0.063
138  4.70881         0.056
139  4.80217         0.050
140  4.92739         0.044
