Sensor Model:   RX-102A-CD-0.05B
Serial Number:  U07529
Data Format:    4      (Log Ohms/Kelvin)
SetPoint Limit: 40      (Kelvin)
Temperature coefficient:  1 (Negative)
Number of Breakpoints:   142

No.   Units      Temperature (K)

  1  3.02233        44.929
  2  3.02431        40.000
  3  3.02485        38.800
  4  3.02533        37.800
  5  3.02584        36.800
  6  3.02637        35.800
  7  3.02699        34.700
  8  3.02771        33.500
  9  3.02847        32.300
 10  3.02913        31.300
 11  3.02977        30.400
 12  3.03053        29.400
 13  3.03132        28.400
 14  3.03200        27.600
 15  3.03273        26.800
 16  3.03381        25.700
 17  3.03473        24.800
 18  3.03561        24.000
 19  3.03668        23.100
 20  3.03782        22.200
 21  3.03876        21.500
 22  3.03978        20.800
 23  3.04088        20.100
 24  3.04178        19.550
 25  3.04255        19.100
 26  3.04336        18.650
 27  3.04430        18.150
 28  3.04528        17.650
 29  3.04622        17.200
 30  3.04720        16.750
 31  3.04824        16.300
 32  3.04934        15.850
 33  3.05048        15.400
 34  3.05169        14.950
 35  3.05297        14.500
 36  3.05432        14.050
 37  3.05560        13.650
 38  3.05694        13.250
 39  3.05837        12.850
 40  3.05988        12.450
 41  3.06148        12.050
 42  3.06318        11.650
 43  3.06498        11.250
 44  3.06666        10.900
 45  3.06843        10.550
 46  3.07033        10.200
 47  3.07236         9.850
 48  3.07452         9.500
 49  3.07680         9.150
 50  3.07922         8.800
 51  3.08184         8.450
 52  3.08426         8.150
 53  3.08685         7.850
 54  3.08964         7.550
 55  3.09261         7.250
 56  3.09580         6.950
 57  3.09922         6.650
 58  3.10291         6.350
 59  3.10691         6.050
 60  3.11083         5.780
 61  3.11524         5.500
 62  3.12007         5.220
 63  3.12534         4.940
 64  3.13071         4.680
 65  3.13612         4.440
 66  3.14205         4.200
 67  3.14775         3.990
 68  3.15270         3.820
 69  3.15770         3.660
 70  3.16307         3.500
 71  3.16849         3.350
 72  3.17472         3.190
 73  3.18103         3.040
 74  3.18740         2.900
 75  3.19479         2.750
 76  3.20227         2.610
 77  3.21043         2.470
 78  3.21935         2.330
 79  3.22843         2.200
 80  3.23837         2.070
 81  3.24932         1.940
 82  3.26048         1.820
 83  3.27179         1.710
 84  3.28428         1.600
 85  3.29816         1.490
 86  3.31361         1.380
 87  3.32934         1.280
 88  3.34164         1.210
 89  3.35009         1.165
 90  3.35898         1.120
 91  3.36735         1.080
 92  3.37621         1.040
 93  3.38562         1.000
 94  3.39562         0.960
 95  3.40625         0.920
 96  3.41755         0.880
 97  3.42962         0.840
 98  3.44088         0.805
 99  3.45285         0.770
100  3.46564         0.735
101  3.47934         0.700
102  3.49405         0.665
103  3.50989         0.630
104  3.52700         0.595
105  3.54286         0.565
106  3.55992         0.535
107  3.57840         0.505
108  3.59367         0.482
109  3.60771         0.462
110  3.62261         0.442
111  3.63693         0.424
112  3.65217         0.406
113  3.66846         0.388
114  3.68582         0.370
115  3.70432         0.352
116  3.72196         0.336
117  3.74090         0.320
118  3.76127         0.304
119  3.78038         0.290
120  3.80257         0.275
121  3.82975         0.258
122  3.85729         0.242
123  3.88346         0.228
124  3.91199         0.214
125  3.94316         0.200
126  3.97476         0.187
127  4.00679         0.175
128  4.04192         0.163
129  4.08060         0.151
130  4.11992         0.140
131  4.16356         0.129
132  4.20789         0.119
133  4.25756         0.109
134  4.30843         0.100
135  4.36602         0.091
136  4.42485         0.083
137  4.49225         0.075
138  4.57049         0.067
139  4.65101         0.060
140  4.74433         0.053
141  4.79312         0.050
142  4.91459         0.044
