Sensor Model:   RX-102A-CD-0.05B
Serial Number:  U07520
Data Format:    4      (Log Ohms/Kelvin)
SetPoint Limit: 40      (Kelvin)
Temperature coefficient:  1 (Negative)
Number of Breakpoints:   141

No.   Units      Temperature (K)

  1  3.02189        44.929
  2  3.02382        40.000
  3  3.02430        38.900
  4  3.02476        37.900
  5  3.02525        36.900
  6  3.02577        35.900
  7  3.02637        34.800
  8  3.02701        33.700
  9  3.02768        32.600
 10  3.02833        31.600
 11  3.02894        30.700
 12  3.02967        29.700
 13  3.03052        28.600
 14  3.03126        27.700
 15  3.03197        26.900
 16  3.03291        25.900
 17  3.03381        25.000
 18  3.03455        24.300
 19  3.03547        23.500
 20  3.03669        22.500
 21  3.03786        21.600
 22  3.03898        20.800
 23  3.04004        20.100
 24  3.04093        19.550
 25  3.04186        19.000
 26  3.04275        18.500
 27  3.04359        18.050
 28  3.04447        17.600
 29  3.04550        17.100
 30  3.04648        16.650
 31  3.04751        16.200
 32  3.04859        15.750
 33  3.04986        15.250
 34  3.05107        14.800
 35  3.05220        14.400
 36  3.05340        14.000
 37  3.05483        13.550
 38  3.05634        13.100
 39  3.05776        12.700
 40  3.05927        12.300
 41  3.06088        11.900
 42  3.06259        11.500
 43  3.06441        11.100
 44  3.06636        10.700
 45  3.06819        10.350
 46  3.07012        10.000
 47  3.07219         9.650
 48  3.07439         9.300
 49  3.07673         8.950
 50  3.07925         8.600
 51  3.08195         8.250
 52  3.08487         7.900
 53  3.08802         7.550
 54  3.09095         7.250
 55  3.09408         6.950
 56  3.09745         6.650
 57  3.10110         6.350
 58  3.10506         6.050
 59  3.10923         5.760
 60  3.11361         5.480
 61  3.11804         5.220
 62  3.12287         4.960
 63  3.12814         4.700
 64  3.13392         4.440
 65  3.14028         4.180
 66  3.14566         3.980
 67  3.15059         3.810
 68  3.15586         3.640
 69  3.16122         3.480
 70  3.16700         3.320
 71  3.17283         3.170
 72  3.17914         3.020
 73  3.18595         2.870
 74  3.19286         2.730
 75  3.20037         2.590
 76  3.20854         2.450
 77  3.21682         2.320
 78  3.22585         2.190
 79  3.23574         2.060
 80  3.24579         1.940
 81  3.25683         1.820
 82  3.26909         1.700
 83  3.28157         1.590
 84  3.29540         1.480
 85  3.31086         1.370
 86  3.32664         1.270
 87  3.33892         1.200
 88  3.34727         1.155
 89  3.35516         1.115
 90  3.36354         1.075
 91  3.37242         1.035
 92  3.38183         0.995
 93  3.39179         0.955
 94  3.40234         0.915
 95  3.41357         0.875
 96  3.42406         0.840
 97  3.43521         0.805
 98  3.44710         0.770
 99  3.45978         0.735
100  3.47333         0.700
101  3.48787         0.665
102  3.50353         0.630
103  3.51801         0.600
104  3.53352         0.570
105  3.55025         0.540
106  3.56832         0.510
107  3.58391         0.486
108  3.59769         0.466
109  3.61229         0.446
110  3.62630         0.428
111  3.64120         0.410
112  3.65711         0.392
113  3.67405         0.374
114  3.69209         0.356
115  3.70925         0.340
116  3.72769         0.324
117  3.75007         0.306
118  3.77012         0.291
119  3.79040         0.277
120  3.81387         0.262
121  3.83912         0.247
122  3.86637         0.232
123  3.89401         0.218
124  3.92195         0.205
125  3.95245         0.192
126  3.98579         0.179
127  4.01944         0.167
128  4.05662         0.155
129  4.09804         0.143
130  4.14030         0.132
131  4.18322         0.122
132  4.23122         0.112
133  4.27988         0.103
134  4.33492         0.094
135  4.39845         0.085
136  4.46405         0.077
137  4.53987         0.069
138  4.62947         0.061
139  4.72219         0.054
140  4.78650         0.050
141  4.91087         0.044
