Sensor Model:   RX-102A-CD-0.05B
Serial Number:  U07916
Data Format:    4      (Log Ohms/Kelvin)
SetPoint Limit: 40      (Kelvin)
Temperature coefficient:  1 (Negative)
Number of Breakpoints:   142

No.   Units      Temperature (K)

  1  3.01673        44.929
  2  3.01855        40.000
  3  3.01911        38.700
  4  3.01961        37.600
  5  3.02009        36.600
  6  3.02059        35.600
  7  3.02118        34.500
  8  3.02180        33.400
  9  3.02245        32.300
 10  3.02302        31.400
 11  3.02356        30.600
 12  3.02421        29.700
 13  3.02512        28.500
 14  3.02585        27.600
 15  3.02655        26.800
 16  3.02747        25.800
 17  3.02836        24.900
 18  3.02920        24.100
 19  3.03011        23.300
 20  3.03121        22.400
 21  3.03238        21.500
 22  3.03349        20.700
 23  3.03439        20.100
 24  3.03519        19.600
 25  3.03627        18.950
 26  3.03704        18.500
 27  3.03768        18.150
 28  3.03845        17.750
 29  3.03957        17.200
 30  3.04063        16.700
 31  3.04163        16.250
 32  3.04269        15.800
 33  3.04369        15.400
 34  3.04474        15.000
 35  3.04599        14.550
 36  3.04730        14.100
 37  3.04853        13.700
 38  3.04983        13.300
 39  3.05121        12.900
 40  3.05267        12.500
 41  3.05421        12.100
 42  3.05585        11.700
 43  3.05737        11.350
 44  3.05899        11.000
 45  3.06071        10.650
 46  3.06253        10.300
 47  3.06445         9.950
 48  3.06650         9.600
 49  3.06869         9.250
 50  3.07104         8.900
 51  3.07356         8.550
 52  3.07627         8.200
 53  3.07920         7.850
 54  3.08237         7.500
 55  3.08530         7.200
 56  3.08844         6.900
 57  3.09182         6.600
 58  3.09548         6.300
 59  3.09971         5.980
 60  3.10377         5.700
 61  3.10820         5.420
 62  3.11304         5.140
 63  3.11794         4.880
 64  3.12331         4.620
 65  3.12921         4.360
 66  3.13572         4.100
 67  3.14122         3.900
 68  3.14626         3.730
 69  3.15168         3.560
 70  3.15718         3.400
 71  3.16312         3.240
 72  3.16955         3.080
 73  3.17609         2.930
 74  3.18271         2.790
 75  3.18990         2.650
 76  3.19769         2.510
 77  3.20556         2.380
 78  3.21413         2.250
 79  3.22352         2.120
 80  3.23385         1.990
 81  3.24437         1.870
 82  3.25592         1.750
 83  3.26769         1.640
 84  3.28081         1.530
 85  3.29680         1.410
 86  3.31161         1.310
 87  3.32840         1.210
 88  3.33373         1.180
 89  3.33766         1.160
 90  3.34825         1.110
 91  3.35869         1.060
 92  3.36850         1.015
 93  3.37656         0.980
 94  3.38513         0.945
 95  3.39435         0.910
 96  3.40419         0.875
 97  3.41615         0.835
 98  3.42894         0.795
 99  3.44091         0.760
100  3.45365         0.725
101  3.46731         0.690
102  3.48197         0.655
103  3.49780         0.620
104  3.51245         0.590
105  3.52815         0.560
106  3.54509         0.530
107  3.56028         0.505
108  3.57384         0.484
109  3.58754         0.464
110  3.60208         0.444
111  3.61759         0.424
112  3.63249         0.406
113  3.64834         0.388
114  3.66530         0.370
115  3.68346         0.352
116  3.70295         0.334
117  3.72151         0.318
118  3.73895         0.304
119  3.75905         0.289
120  3.78065         0.274
121  3.80397         0.259
122  3.82934         0.244
123  3.85680         0.229
124  3.88445         0.215
125  3.91230         0.202
126  3.94268         0.189
127  3.97610         0.176
128  4.01011         0.164
129  4.04749         0.152
130  4.08555         0.141
131  4.12772         0.130
132  4.17486         0.119
133  4.22339         0.109
134  4.27294         0.100
135  4.32917         0.091
136  4.39395         0.082
137  4.46099         0.074
138  4.53872         0.066
139  4.63119         0.058
140  4.71283         0.052
141  4.74563         0.050
142  4.86477         0.044
