Sensor Model:   DT-670-CU-HT-1.4L
Serial Number:  D6135689
Data Format:    2      (Volts/Kelvin)
SetPoint Limit: 325      (Kelvin)
Temperature coefficient:  1 (Negative)
Number of Breakpoints:   110

No.   Units      Temperature (K)

  1  .90600e-01    500.000
  2  .110239       491.000
  3  .136555       479.500
  4  .179181       461.500
  5  .265393       425.500
  6  .349522       390.000
  7  .452797       346.000
  8  .495441       330.155
  9  .507361       325.000
 10  .553326       305.000
 11  .589852       289.000
 12  .623831       274.000
 13  .655292       260.000
 14  .685369       246.500
 15  .714070       233.500
 16  .741416       221.000
 17  .767413       209.000
 18  .792074       197.500
 19  .815421       186.500
 20  .837466       176.000
 21  .858228       166.000
 22  .877722       156.500
 23  .895961       147.500
 24  .912965       139.000
 25  .928759       131.000
 26  .944332       123.000
 27  .958706       115.500
 28  .971918       108.500
 29  .984920       101.500
 30  .994968        96.000
 31  1.00309        91.500
 32  1.01111        87.000
 33  1.01903        82.500
 34  1.02685        78.000
 35  1.03457        73.500
 36  1.04219        69.000
 37  1.04971        64.500
 38  1.05812        59.400
 39  1.06658        54.200
 40  1.07561        48.600
 41  1.08006        45.800
 42  1.08507        42.600
 43  1.08987        39.600
 44  1.09555        36.100
 45  1.09773        34.800
 46  1.10260        32.000
 47  1.10413        31.100
 48  1.10541        30.400
 49  1.10661        29.800
 50  1.10810        29.100
 51  1.10968        28.300
 52  1.11054        27.900
 53  1.11226        27.200
 54  1.11407        26.500
 55  1.11552        26.000
 56  1.11685        25.600
 57  1.11835        25.200
 58  1.11967        24.900
 59  1.12119        24.600
 60  1.12303        24.300
 61  1.12532        24.000
 62  1.12725        23.800
 63  1.12952        23.600
 64  1.13221        23.400
 65  1.13537        23.200
 66  1.14092        22.900
 67  1.15384        22.300
 68  1.16278        21.900
 69  1.17076        21.500
 70  1.17973        21.000
 71  1.19127        20.300
 72  1.20447        19.450
 73  1.22875        17.850
 74  1.24347        16.900
 75  1.25543        16.150
 76  1.26616        15.500
 77  1.27728        14.850
 78  1.28796        14.250
 79  1.29817        13.700
 80  1.30881        13.150
 81  1.31992        12.600
 82  1.33155        12.050
 83  1.34372        11.500
 84  1.35531        11.000
 85  1.36740        10.500
 86  1.38006        10.000
 87  1.39333         9.500
 88  1.40730         9.000
 89  1.42203         8.500
 90  1.43750         8.000
 91  1.45534         7.450
 92  1.47567         6.850
 93  1.52710         5.380
 94  1.54605         4.820
 95  1.55895         4.420
 96  1.56925         4.080
 97  1.57659         3.820
 98  1.58249         3.600
 99  1.58886         3.350
100  1.59643         3.040
101  1.60443         2.700
102  1.61032         2.440
103  1.61485         2.230
104  1.61851         2.050
105  1.62153         1.890
106  1.62397         1.750
107  1.62607         1.620
108  1.62784         1.500
109  1.62918         1.400
110  1.63149         1.200
