Sensor Model:   DT-670-CU-HT-1.4L
Serial Number:  D6135680
Data Format:    2      (Volts/Kelvin)
SetPoint Limit: 325      (Kelvin)
Temperature coefficient:  1 (Negative)
Number of Breakpoints:   110

No.   Units      Temperature (K)

  1  .90600e-01    500.000
  2  .110239       491.000
  3  .136555       479.500
  4  .179181       461.500
  5  .265393       425.500
  6  .349522       390.000
  7  .452797       346.000
  8  .496348       330.153
  9  .508245       325.000
 10  .549575       307.000
 11  .588360       290.000
 12  .622313       275.000
 13  .654864       260.500
 14  .684907       247.000
 15  .713578       234.000
 16  .740891       221.500
 17  .766861       209.500
 18  .791495       198.000
 19  .814815       187.000
 20  .836839       176.500
 21  .857581       166.500
 22  .877053       157.000
 23  .895275       148.000
 24  .912266       139.500
 25  .928048       131.500
 26  .943611       123.500
 27  .957978       116.000
 28  .971184       109.000
 29  .984183       102.000
 30  .994229        96.500
 31  1.00235        92.000
 32  1.01037        87.500
 33  1.01830        83.000
 34  1.02612        78.500
 35  1.03384        74.000
 36  1.04146        69.500
 37  1.04898        65.000
 38  1.05641        60.500
 39  1.06375        56.000
 40  1.07539        48.800
 41  1.07984        46.000
 42  1.08515        42.600
 43  1.08996        39.600
 44  1.09287        37.800
 45  1.09541        36.200
 46  1.09756        34.900
 47  1.10016        33.400
 48  1.10462        30.900
 49  1.10632        30.000
 50  1.10893        28.700
 51  1.11064        27.900
 52  1.11228        27.200
 53  1.11381        26.600
 54  1.11523        26.100
 55  1.11650        25.700
 56  1.11794        25.300
 57  1.11963        24.900
 58  1.12115        24.600
 59  1.12297        24.300
 60  1.12525        24.000
 61  1.12717        23.800
 62  1.12943        23.600
 63  1.13212        23.400
 64  1.13527        23.200
 65  1.14084        22.900
 66  1.15381        22.300
 67  1.16278        21.900
 68  1.17078        21.500
 69  1.17978        21.000
 70  1.19134        20.300
 71  1.20454        19.450
 72  1.22962        17.800
 73  1.24360        16.900
 74  1.25560        16.150
 75  1.26634        15.500
 76  1.27661        14.900
 77  1.28728        14.300
 78  1.29840        13.700
 79  1.30905        13.150
 80  1.32016        12.600
 81  1.33180        12.050
 82  1.34397        11.500
 83  1.35674        10.950
 84  1.36892        10.450
 85  1.38166         9.950
 86  1.39504         9.450
 87  1.40772         9.000
 88  1.42102         8.550
 89  1.43653         8.050
 90  1.45448         7.500
 91  1.47497         6.900
 92  1.53237         5.280
 93  1.55156         4.720
 94  1.56457         4.320
 95  1.57372         4.020
 96  1.58064         3.780
 97  1.58694         3.550
 98  1.59371         3.290
 99  1.60119         2.990
100  1.60838         2.690
101  1.61388         2.450
102  1.61824         2.250
103  1.62173         2.080
104  1.62461         1.930
105  1.62710         1.790
106  1.62923         1.660
107  1.63104         1.540
108  1.63255         1.430
109  1.63293         1.400
110  1.63521         1.199
