Sensor Model:   RX-102A-CD-0.05B
Serial Number:  U05564
Data Format:    4      (Log Ohms/Kelvin)
SetPoint Limit: 40      (Kelvin)
Temperature coefficient:  1 (Negative)
Number of Breakpoints:   140

No.   Units      Temperature (K)

  1  3.01564        44.922
  2  3.01738        40.000
  3  3.01780        39.000
  4  3.01824        38.000
  5  3.01881        36.800
  6  3.01955        35.300
  7  3.02011        34.200
  8  3.02061        33.300
  9  3.02108        32.500
 10  3.02164        31.600
 11  3.02237        30.500
 12  3.02307        29.500
 13  3.02374        28.600
 14  3.02446        27.700
 15  3.02532        26.700
 16  3.02623        25.700
 17  3.02710        24.800
 18  3.02793        24.000
 19  3.02882        23.200
 20  3.02990        22.300
 21  3.03092        21.500
 22  3.03202        20.700
 23  3.03322        19.900
 24  3.03399        19.400
 25  3.03473        18.950
 26  3.03551        18.500
 27  3.03633        18.050
 28  3.03729        17.550
 29  3.03829        17.050
 30  3.03924        16.600
 31  3.04024        16.150
 32  3.04130        15.700
 33  3.04242        15.250
 34  3.04359        14.800
 35  3.04483        14.350
 36  3.04600        13.950
 37  3.04723        13.550
 38  3.04854        13.150
 39  3.04993        12.750
 40  3.05139        12.350
 41  3.05294        11.950
 42  3.05459        11.550
 43  3.05634        11.150
 44  3.05822        10.750
 45  3.06023        10.350
 46  3.06211        10.000
 47  3.06410         9.650
 48  3.06623         9.300
 49  3.06849         8.950
 50  3.07093         8.600
 51  3.07355         8.250
 52  3.07638         7.900
 53  3.07944         7.550
 54  3.08228         7.250
 55  3.08531         6.950
 56  3.08858         6.650
 57  3.09212         6.350
 58  3.09594         6.050
 59  3.09996         5.760
 60  3.10418         5.480
 61  3.10846         5.220
 62  3.11313         4.960
 63  3.11823         4.700
 64  3.12381         4.440
 65  3.12947         4.200
 66  3.13489         3.990
 67  3.13958         3.820
 68  3.14436         3.660
 69  3.14982         3.490
 70  3.15533         3.330
 71  3.16091         3.180
 72  3.16697         3.030
 73  3.17351         2.880
 74  3.18014         2.740
 75  3.18732         2.600
 76  3.19510         2.460
 77  3.20298         2.330
 78  3.21156         2.200
 79  3.22094         2.070
 80  3.23046         1.950
 81  3.24092         1.830
 82  3.25253         1.710
 83  3.26437         1.600
 84  3.27748         1.490
 85  3.29199         1.380
 86  3.30519         1.290
 87  3.31841         1.210
 88  3.32688         1.160
 89  3.33233         1.130
 90  3.33913         1.095
 91  3.34839         1.050
 92  3.35808         1.005
 93  3.36604         0.970
 94  3.37453         0.935
 95  3.38364         0.900
 96  3.39470         0.860
 97  3.40642         0.820
 98  3.41732         0.785
 99  3.42893         0.750
100  3.44138         0.715
101  3.45465         0.680
102  3.46881         0.645
103  3.48186         0.615
104  3.49583         0.585
105  3.51093         0.555
106  3.52729         0.525
107  3.54323         0.498
108  3.55705         0.476
109  3.57032         0.456
110  3.58297         0.438
111  3.59642         0.420
112  3.61080         0.402
113  3.62777         0.382
114  3.64751         0.360
115  3.66277         0.344
116  3.67711         0.330
117  3.69490         0.314
118  3.71755         0.295
119  3.73801         0.279
120  3.75870         0.264
121  3.77955         0.250
122  3.80058         0.237
123  3.82360         0.224
124  3.85832         0.206
125  3.89101         0.190
126  3.91558         0.179
127  3.94771         0.166
128  3.98271         0.153
129  4.01266         0.143
130  4.05017         0.132
131  4.09940         0.119
132  4.14923         0.107
133  4.19117         0.098
134  4.23485         0.090
135  4.30342         0.079
136  4.42869         0.060
137  4.46241         0.056
138  4.50331         0.052
139  4.51959         0.050
140  4.56946         0.045
