Sensor Model:   RX-102A-CD-0.05B
Serial Number:  U10276
Data Format:    4      (Log Ohms/Kelvin)
SetPoint Limit: 40      (Kelvin)
Temperature coefficient:  1 (Negative)
Number of Breakpoints:   143

No.   Units      Temperature (K)

  1  3.02157        44.923
  2  3.02349        40.000
  3  3.02412        38.600
  4  3.02464        37.500
  5  3.02514        36.500
  6  3.02566        35.500
  7  3.02628        34.400
  8  3.02700        33.200
  9  3.02769        32.100
 10  3.02828        31.200
 11  3.02885        30.400
 12  3.02961        29.400
 13  3.03048        28.300
 14  3.03115        27.500
 15  3.03188        26.700
 16  3.03284        25.700
 17  3.03376        24.800
 18  3.03463        24.000
 19  3.03556        23.200
 20  3.03668        22.300
 21  3.03774        21.500
 22  3.03888        20.700
 23  3.03980        20.100
 24  3.04061        19.600
 25  3.04154        19.050
 26  3.04243        18.550
 27  3.04328        18.100
 28  3.04416        17.650
 29  3.04520        17.150
 30  3.04617        16.700
 31  3.04719        16.250
 32  3.04828        15.800
 33  3.04942        15.350
 34  3.05063        14.900
 35  3.05190        14.450
 36  3.05323        14.000
 37  3.05450        13.600
 38  3.05567        13.250
 39  3.05710        12.850
 40  3.05880        12.400
 41  3.06060        11.950
 42  3.06231        11.550
 43  3.06412        11.150
 44  3.06605        10.750
 45  3.06786        10.400
 46  3.06979        10.050
 47  3.07185         9.700
 48  3.07404         9.350
 49  3.07639         9.000
 50  3.07890         8.650
 51  3.08159         8.300
 52  3.08449         7.950
 53  3.08717         7.650
 54  3.09003         7.350
 55  3.09311         7.050
 56  3.09643         6.750
 57  3.10002         6.450
 58  3.10389         6.150
 59  3.10796         5.860
 60  3.11223         5.580
 61  3.11688         5.300
 62  3.12162         5.040
 63  3.12680         4.780
 64  3.13247         4.520
 65  3.13869         4.260
 66  3.14500         4.020
 67  3.15051         3.830
 68  3.15578         3.660
 69  3.16077         3.510
 70  3.16652         3.350
 71  3.17273         3.190
 72  3.17902         3.040
 73  3.18584         2.890
 74  3.19326         2.740
 75  3.20079         2.600
 76  3.20898         2.460
 77  3.21793         2.320
 78  3.22702         2.190
 79  3.23696         2.060
 80  3.24706         1.940
 81  3.25818         1.820
 82  3.27057         1.700
 83  3.28435         1.580
 84  3.29841         1.470
 85  3.31278         1.370
 86  3.33158         1.250
 87  3.33879         1.210
 88  3.34504         1.180
 89  3.35165         1.150
 90  3.35884         1.115
 91  3.36773         1.070
 92  3.37403         1.040
 93  3.38084         1.010
 94  3.38935         0.975
 95  3.39974         0.935
 96  3.41079         0.895
 97  3.42253         0.855
 98  3.43506         0.815
 99  3.44676         0.780
100  3.45918         0.745
101  3.47250         0.710
102  3.48480         0.680
103  3.49795         0.650
104  3.51203         0.620
105  3.52706         0.590
106  3.54308         0.560
107  3.56020         0.530
108  3.57547         0.505
109  3.58791         0.486
110  3.60050         0.468
111  3.61542         0.448
112  3.63430         0.424
113  3.65234         0.402
114  3.66472         0.388
115  3.67631         0.376
116  3.68911         0.364
117  3.71691         0.340
118  3.72754         0.330
119  3.73920         0.318
120  3.74578         0.312
121  3.75350         0.306
122  3.77303         0.293
123  3.78373         0.286
124  3.81297         0.265
125  3.82828         0.255
126  3.84875         0.243
127  3.87862         0.227
128  3.90489         0.214
129  3.92971         0.203
130  4.01374         0.170
131  4.03677         0.162
132  4.06750         0.153
133  4.14044         0.133
134  4.16972         0.126
135  4.22359         0.115
136  4.29614         0.101
137  4.33785         0.094
138  4.39410         0.086
139  4.46572         0.077
140  4.53104         0.070
141  4.59819         0.064
142  4.78558         0.050
143  4.89361         0.045
