Sensor Model:   RX-102A-CD-0.05B
Serial Number:  U10950
Data Format:    4      (Log Ohms/Kelvin)
SetPoint Limit: 40      (Kelvin)
Temperature coefficient:  1 (Negative)
Number of Breakpoints:   137

No.   Units      Temperature (K)

  1  3.01637        45.105
  2  3.01824        40.000
  3  3.01876        38.800
  4  3.01926        37.700
  5  3.01984        36.500
  6  3.02045        35.300
  7  3.02104        34.200
  8  3.02160        33.200
  9  3.02214        32.300
 10  3.02265        31.500
 11  3.02320        30.700
 12  3.02511        28.100
 13  3.02558        27.500
 14  3.02619        26.800
 15  3.02733        25.600
 16  3.02823        24.700
 17  3.02908        23.900
 18  3.03011        23.000
 19  3.03122        22.100
 20  3.03214        21.400
 21  3.03313        20.700
 22  3.03405        20.100
 23  3.03492        19.550
 24  3.03583        19.000
 25  3.03670        18.500
 26  3.03753        18.050
 27  3.03840        17.600
 28  3.03942        17.100
 29  3.04049        16.600
 30  3.04150        16.150
 31  3.04257        15.700
 32  3.04357        15.300
 33  3.04462        14.900
 34  3.04588        14.450
 35  3.04721        14.000
 36  3.04845        13.600
 37  3.04976        13.200
 38  3.05115        12.800
 39  3.05262        12.400
 40  3.05419        12.000
 41  3.05585        11.600
 42  3.05762        11.200
 43  3.05951        10.800
 44  3.06153        10.400
 45  3.06368        10.000
 46  3.06570         9.650
 47  3.06785         9.300
 48  3.07016         8.950
 49  3.07263         8.600
 50  3.07529         8.250
 51  3.07816         7.900
 52  3.08081         7.600
 53  3.08364         7.300
 54  3.08669         7.000
 55  3.08996         6.700
 56  3.09350         6.400
 57  3.09733         6.100
 58  3.10121         5.820
 59  3.10541         5.540
 60  3.10999         5.260
 61  3.11465         5.000
 62  3.11974         4.740
 63  3.12532         4.480
 64  3.13094         4.240
 65  3.13659         4.020
 66  3.14159         3.840
 67  3.14638         3.680
 68  3.15184         3.510
 69  3.15739         3.350
 70  3.16338         3.190
 71  3.16946         3.040
 72  3.17602         2.890
 73  3.18316         2.740
 74  3.19041         2.600
 75  3.19830         2.460
 76  3.20691         2.320
 77  3.21564         2.190
 78  3.22521         2.060
 79  3.23572         1.930
 80  3.24644         1.810
 81  3.25836         1.690
 82  3.27162         1.570
 83  3.28389         1.470
 84  3.29766         1.370
 85  3.31868         1.230
 86  3.32491         1.195
 87  3.34632         1.085
 88  3.35349         1.050
 89  3.36113         1.015
 90  3.37043         0.975
 91  3.38142         0.930
 92  3.39168         0.890
 93  3.40121         0.855
 94  3.41138         0.820
 95  3.42225         0.785
 96  3.43386         0.750
 97  3.44626         0.715
 98  3.45954         0.680
 99  3.47380         0.645
100  3.48700         0.615
101  3.50116         0.585
102  3.51658         0.555
103  3.53350         0.525
104  3.55128         0.496
105  3.56933         0.468
106  3.58418         0.446
107  3.59709         0.428
108  3.60936         0.412
109  3.62414         0.394
110  3.64166         0.374
111  3.66023         0.354
112  3.67423         0.340
113  3.68938         0.326
114  3.72869         0.292
115  3.74263         0.281
116  3.76073         0.268
117  3.78482         0.252
118  3.81234         0.235
119  3.83847         0.220
120  3.86334         0.207
121  3.89077         0.194
122  3.92078         0.181
123  3.95110         0.169
124  3.98453         0.157
125  4.02132         0.145
126  4.05867         0.134
127  4.09672         0.124
128  4.14348         0.113
129  4.19087         0.103
130  4.23906         0.094
131  4.29445         0.085
132  4.35026         0.077
133  4.40687         0.070
134  4.48311         0.062
135  4.55122         0.056
136  4.63501         0.050
137  4.71706         0.045
